    HOUR (UT)   FLARE FACTOR    SKY TESTER    SUN TESTER
   12.05583382   -1.00000000   -1.00000000   -1.00000000
   12.14222240   74.50430298    0.63000000    0.55000001
   12.14527798   74.30879974    0.75000000    0.55000001
   12.14861107   76.01920319    0.95999998    0.52999997
   12.15194416   77.93599701    1.11000001    0.52999997
   12.15499973   78.57319641    1.26999998    0.52999997
   12.15833282   80.85089874    1.25000000    0.46000001
   12.16166592   81.27919769    1.21000004    0.50000000
   12.16472149   76.55970001    1.03999996    0.51999998
   12.17083359   76.55970001    0.81999999    0.55000001
   12.17500019   76.04730225    0.61000001    0.55000001
   12.17805576   76.25009918    0.52999997    0.55000001
   12.18138885   77.36340332    0.44000000    0.55000001
   12.18444443   76.59110260    0.36000001    0.55000001
   12.18777752   76.78279877    0.36000001    0.55000001
   12.19111156   77.04640198    0.36000001    0.52999997
   12.19222260   73.47149658    0.44000000    2.67000008
   12.19444466   74.94139862    4.90999985    2.61999989
   12.19777775   74.64399719    4.90999985    2.59999990
   12.20111084   76.97000122    4.90999985    2.59999990
   12.20416641   76.75060272    4.90999985    2.61999989
   12.20749950   73.24520111    4.90999985    2.59999990
   12.21055508   72.64949799    4.90999985    2.59999990
   12.21388912   74.26000214    4.90999985    2.59999990
   12.21722221   76.46730042    4.90999985    2.59999990
   12.22194386   76.46730042    4.90999985    2.61999989
   12.22611046   76.59760284    4.90999985    2.61999989
   12.22916603   74.86779785    4.90999985    2.61999989
   12.23249912   76.56580353    4.90999985    2.61999989
   12.23583317   76.99929810    4.90999985    2.61999989
   12.23888874   80.17130280    4.90999985    2.61999989
   12.24222279   76.30789948    4.90999985    2.61999989
   12.24250031   76.88300323    4.90999985    2.61999989
   12.24583340   76.41439819    4.90999985    2.61999989
   12.24888897   79.88919830    4.90999985    2.59999990
   12.25222206   76.96279907    4.90999985    2.61999989
   12.25555515   75.52519989    4.90999985    2.59999990
   12.25861073   76.72029877    4.90999985    2.61999989
   12.26194477   78.07089996    4.90999985    2.61999989
   12.26527786   76.22139740    4.90999985    2.59999990
   12.26833344   76.74970245    4.90999985    2.61999989
   12.27305508   76.74970245    4.90999985    2.61999989
   12.27722168   75.13439941    4.90999985    2.61999989
   12.28055573   78.43499756    4.90999985    2.59999990
   12.28361130   73.70050049    4.90999985    2.59999990
   12.28694534   76.31520081    4.90999985    2.59999990
   12.29000092   78.72380066    4.90999985    2.59999990
   12.29222298   81.24729919    4.90999985    2.59999990
   12.29361153   75.04930115    4.90999985    2.59999990
   12.29694462   83.72699738    4.90999985    2.61999989
   12.30027771   81.74559784    4.90999985    2.59999990
   12.30333328   86.38790131    4.90999985    2.59999990
   12.30666733   75.20089722    4.90999985    2.55999994
   12.30972195   78.58609772    4.90999985    2.57999992
   12.31305599   82.90869904    4.90999985    2.53999996
   12.31638908   73.90630341    4.90999985    2.48000002
   12.31944466   77.30860138    4.90999985    2.57999992
   12.32416630   77.30860138    4.90999985    2.59999990
   12.32833290   77.72190094    4.90999985    2.59999990
   12.33166695   74.56250000    4.90999985    2.59999990
   12.33472157   78.31109619    4.90999985    2.59999990
   12.33805561   79.46800232    4.90999985    2.59999990
   12.34138870   77.30989838    4.90999985    2.59999990
   12.34222221   75.01490021    4.90999985    2.59999990
   12.34499931   76.80909729    4.90999985    2.59999990
   12.34805489   76.17040253    4.90999985    2.59999990
   12.35138893   78.57839966    4.90999985    2.59999990
   12.35444450   81.67539978    4.90999985    2.59999990
   12.35777855   74.37100220    4.90999985    2.59999990
   12.36111164   78.89459991    4.90999985    2.59999990
   12.36416721   78.92259979    4.90999985    2.59999990
   12.36750031   74.88300323    4.90999985    2.59999990
   12.37083340   73.52719879    4.90999985    2.61999989
   12.37555599   73.52719879    4.90999985    2.61999989
   12.37972260   75.34790039    4.90999985    2.61999989
   12.38277817   73.43630219    4.90999985    2.64000010
   12.38611126   73.06479645    4.90999985    2.61999989
   12.38916683   74.72979736    4.90999985    2.61999989
   12.39222240   74.61219788    4.90999985    2.61999989
   12.39277744   72.49960327    4.90999985    2.61999989
   12.39611053   74.27780151    4.90999985    2.64000010
   12.39944458   79.91280365    4.90999985    2.61999989
   12.40249920   73.36569977    4.90999985    2.61999989
   12.40583324   74.77980042    4.90999985    2.64000010
   12.40916634   75.78040314    4.90999985    2.61999989
   12.41222191   74.91300201    4.90999985    2.64000010
   12.41555500   75.47740173    4.90999985    2.61999989
   12.41861153   75.72540283    4.90999985    2.61999989
   12.42194462   76.06510162    4.90999985    2.59999990
   12.42666721   76.06510162    4.90999985    2.61999989
   12.43083382   77.36589813    4.90999985    2.61999989
   12.43388939   75.20619965    4.90999985    2.59999990
   12.43722248   73.64189911    4.90999985    2.61999989
   12.44055557   73.58480072    4.90999985    2.61999989
   12.44222260   73.42819977    4.90999985    2.64000010
   12.44388866   74.26249695    4.90999985    2.64000010
   12.44722271   73.07520294    4.90999985    2.61999989
   12.45055580   73.14479828    4.90999985    2.64000010
   12.45361137   76.23280334    4.90999985    2.61999989
   12.45694447   74.06130219    4.90999985    2.61999989
   12.46027756   74.62439728    4.90999985    2.61999989
   12.46333313   74.51799774    4.90999985    2.59999990
   12.46666622   76.04779816    4.90999985    2.59999990
   12.46972179   76.79820251    4.90999985    2.59999990
   12.47305489   73.33789825    4.90999985    2.59999990
   12.47777748   73.33789825    4.90999985    2.59999990
   12.48194408   74.84349823    4.90999985    2.59999990
   12.48527813   73.68070221    4.90999985    2.59999990
   12.48833370   75.90029907    4.90999985    2.59999990
   12.49166679   76.08489990    4.90999985    2.59999990
   12.49222279   75.96640015    4.90999985    2.57999992
   12.49527836   76.75399780    4.90999985    2.59999990
   12.49833393   75.64179993    4.90999985    2.57999992
   12.50166702   76.35500336    4.90999985    2.57999992
   12.50472260   74.26049805    4.90999985    2.57999992
   12.50805569   74.42680359    4.90999985    2.59999990
   12.51138878   76.68119812    4.90999985    2.59999990
   12.51444435   76.18000031    4.90999985    2.59999990
   12.51777744   76.16880035    4.90999985    2.59999990
   12.52111053   75.28549957    4.90999985    2.61999989
   12.52416611   76.47899628    4.90999985    2.61999989
   12.52888870   76.47899628    4.90999985    2.64000010
   12.53305531   74.53849792    4.90999985    2.64000010
   12.53638935   74.61029816    4.90999985    2.64000010
   12.53944492   75.87370300    4.90999985    2.64000010
   12.54222298   75.31459808    4.90999985    2.64000010
   12.54333401   75.61820221    4.90999985    2.64000010
   12.54638958   78.58239746    4.90999985    2.64000010
   12.54972267   73.59649658    4.90999985    2.64000010
   12.55305576   74.85320282    4.90999985    2.64000010
   12.55611134   76.16059875    4.90999985    2.64000010
   12.55944443   73.63680267    4.90999985    2.64000010
   12.56250000   73.69599915    4.90999985    2.64000010
   12.56583309   74.41649628    4.90999985    2.64000010
   12.56916618   75.65540314    4.90999985    2.66000009
   12.57222176   74.60759735    4.90999985    2.64000010
   12.57555580   72.35759735    4.90999985    2.64000010
   12.58027744   72.35759735    4.90999985    2.64000010
   12.58444405   75.75340271    4.90999985    2.66000009
   12.58749962   75.89320374    4.90999985    2.66000009
   12.59083271   76.51670074    4.90999985    2.66000009
   12.59222221   76.66320038    4.90999985    2.64000010
   12.59444427   76.95369720    4.90999985    2.66000009
   12.59749985   75.67220306    4.90999985    2.66000009
   12.60083389   76.87069702    4.90999985    2.66000009
   12.60416698   75.53009796    4.90999985    2.64000010
   12.60722256   72.87010193    4.90999985    2.64000010
   12.61055565   74.87300110    4.90999985    2.64000010
   12.61388969   76.76339722    4.90999985    2.64000010
   12.61694431   75.75489807    4.90999985    2.66000009
   12.62027836   75.25119781    4.90999985    2.66000009
   12.62333393   73.64479828    4.90999985    2.64000010
   12.62666702   73.11660004    4.90999985    2.66000009
   12.63138866   73.11660004    4.90999985    2.64000010
   12.63555527   73.13610077    4.90999985    2.66000009
   12.63861084   72.77439880    4.90999985    2.66000009
   12.64194393   74.84909821    4.90999985    2.66000009
   12.64249992   72.98699951    4.90999985    2.64000010
   12.64555550   74.23130035    4.90999985    2.66000009
   12.64861107   72.15619659    4.90999985    2.66000009
   12.65194416   73.31140137    4.90999985    2.66000009
   12.65499973   73.95179749    4.90999985    2.67000008
   12.65833282   73.63700104    4.90999985    2.66000009
   12.66166592   74.38009644    4.90999985    2.66000009
   12.66472149   74.17220306    4.90999985    2.66000009
   12.66805553   74.28029633    4.90999985    2.64000010
   12.67138958   74.06230164    4.90999985    2.66000009
   12.67444515   74.80400085    4.90999985    2.66000009
   12.67777824   72.78890228    4.90999985    2.66000009
   12.68249989   72.78890228    4.90999985    2.66000009
   12.68666649   74.86879730    4.90999985    2.66000009
   12.68972206   74.20420074    4.90999985    2.67000008
   12.69250011   73.76049805    4.90999985    2.66000009
   12.69361115   73.47370148    4.90999985    2.67000008
   12.69666672   74.84159851    4.90999985    2.67000008
   12.69999981   72.60060120    4.90999985    2.66000009
   12.70305538   78.90489960    4.90999985    2.67000008
   12.70638847   76.31749725    4.90999985    2.66000009
   12.70972157   77.09290314    4.90999985    2.66000009
   12.71277714   74.19480133    4.90999985    2.66000009
   12.71611118   75.19719696    4.90999985    2.66000009
   12.71944427   73.06790161    4.90999985    2.67000008
   12.72249985   73.57959747    4.90999985    2.67000008
   12.72583294   73.23619843    4.90999985    2.67000008
   12.72888851   74.43890381    4.90999985    2.66000009
   12.73361111   74.43890381    4.90999985    2.67000008
   12.73777771   75.86910248    4.90999985    2.66000009
   12.74111176   76.23269653    4.90999985    2.67000008
   12.74250031   75.17800140    4.90999985    2.66000009
   12.74472237   74.59230042    4.90999985    2.66000009
   12.74777794   77.07929993    4.90999985    2.66000009
   12.75111103   74.66419983    4.90999985    2.66000009
   12.75416660   80.91030121    4.90999985    2.67000008
   12.75749969   74.84410095    4.90999985    2.66000009
   12.76083374   76.00370026    4.90999985    2.67000008
   12.76388931   75.93820190    4.90999985    2.67000008
   12.76722240   75.98040009    4.90999985    2.66000009
   12.77055550   78.54889679    4.90999985    2.66000009
   12.77361107   73.75550079    4.90999985    2.66000009
   12.77694416   73.48290253    4.90999985    2.66000009
   12.77999973   72.09230042    4.90999985    2.66000009
   12.78472233   72.09230042    4.90999985    2.66000009
   12.78888893   75.65529633    4.90999985    2.67000008
   12.79222298   73.16580200    4.90999985    2.67000008
   12.79277802   73.13279724    4.90999985    2.67000008
   12.79611111   73.21759796    4.90999985    2.69000006
   12.79916668   76.59030151    4.90999985    2.71000004
   12.80249977   75.17209625    4.90999985    2.69000006
   12.80555534   72.75599670    4.90999985    2.69000006
   12.80888939   78.98210144    4.90999985    2.69000006
   12.81222248   74.43289948    4.90999985    2.55999994
   12.81527805   74.76069641    4.90999985    2.69000006
   12.81861115   73.98239899    4.90999985    2.67000008
   12.82194424   72.10700226    4.90999985    2.71000004
   12.82499981   74.17430115    4.90999985    2.69000006
   12.82833290   79.46199799    4.90999985    2.69000006
   12.83138847   72.94840240    4.90999985    2.66000009
   12.83611107   72.94840240    4.90999985    2.67000008
   12.84027767   72.11139679    4.90999985    2.66000009
   12.84277725   74.02269745    4.90999985    2.67000008
   12.84388828   72.91459656    4.90999985    2.67000008
   12.84694386   72.84549713    4.90999985    2.67000008
   12.85027790   73.73449707    4.90999985    2.67000008
   12.85333347   74.40290070    4.90999985    2.67000008
   12.85666752   74.02349854    4.90999985    2.67000008
   12.86000061   74.47229767    4.90999985    2.67000008
   12.86305618   73.12139893    4.90999985    2.67000008
   12.86638927   74.89540100    4.90999985    2.69000006
   12.86972237   76.21690369    4.90999985    2.67000008
   12.87277794   74.05079651    4.90999985    2.66000009
   12.87611103   72.34390259    4.90999985    2.67000008
   12.87916660   73.43699646    4.90999985    2.66000009
   12.88249969   74.51640320    4.90999985    2.69000006
   12.88722229   74.51640320    4.90999985    2.69000006
   12.89138889   72.42939758    4.90999985    2.67000008
   12.89277744   73.37500000    4.90999985    2.67000008
   12.89499950   75.26809692    4.90999985    2.69000006
   12.89805508   75.78079987    4.90999985    2.67000008
   12.90138817   72.62180328    4.90999985    2.67000008
   12.90472221   73.90290070    4.90999985    2.69000006
   12.90777779   77.05999756    4.90999985    2.67000008
   12.91111088   76.07150269    4.90999985    2.69000006
   12.91416645   75.69219971    4.90999985    2.69000006
   12.91750050   78.82350159    4.90999985    2.69000006
   12.92083359   73.23139954    4.90999985    2.69000006
   12.92388916   73.19370270    4.90999985    2.69000006
   12.92722225   75.67269897    4.90999985    2.69000006
   12.93055630   76.38529968    4.90999985    2.69000006
   12.93361092   73.08699799    4.90999985    2.69000006
   12.93833351   73.08699799    4.90999985    2.69000006
   12.94250011   74.65769958    4.90999985    2.69000006
   12.94305515   74.54650116    4.90999985    2.69000006
   12.94638920   77.50360107    4.90999985    2.69000006
   12.94944477   85.28179932    4.90999985    2.69000006
   12.95277786   73.27050018    4.90999985    2.66000009
   12.95611095   73.96769714    4.90999985    2.69000006
   12.95916653   71.09709930    4.90999985    2.69000006
   12.96249962   74.65579987    4.90999985    2.69000006
   12.96555519   76.53489685    4.90999985    2.67000008
   12.96888828   76.09809875    4.90999985    2.69000006
   12.97222137   72.97650146    4.90999985    2.69000006
   12.97527695   73.42420197    4.90999985    2.69000006
   12.97861099   -1.00000000    4.90999985    2.78999996
   12.98194408   77.81629944    4.90999985    1.03999996
   12.98500061   74.20659637    4.90999985    2.71000004
   12.98944473   74.20659637    4.90999985    2.67000008
   12.99361134   74.72660065    4.90999985    2.67000008
   12.99694443   74.26380157    4.90999985    2.64000010
   13.00027752   76.29989624    4.90999985    2.69000006
   13.00333309   78.95079803    4.90999985    2.69000006
   13.00666714   78.57080078    4.90999985    2.69000006
   13.00972176   72.22180176    4.90999985    2.69000006
   13.01305580   74.54489899    4.90999985    2.69000006
   13.01638889   73.80770111    4.90999985    2.71000004
   13.01944447   74.82969666    4.90999985    2.67000008
   13.02277756   78.14600372    4.90999985    2.69000006
   13.02611065   76.47619629    4.90999985    2.67000008
   13.02916622   72.24900055    4.90999985    2.67000008
   13.03249931   77.34629822    4.90999985    2.67000008
   13.03555584   74.07939911    4.90999985    2.69000006
   13.04083347   74.07939911    4.90999985    2.71000004
   13.04500008   74.52439880    4.90999985    2.71000004
   13.04805565   72.83180237    4.90999985    2.69000006
   13.05138874   74.89129639    4.90999985    2.69000006
   13.05444431   73.71939850    4.90999985    2.71000004
   13.05777836   76.39649963    4.90999985    2.69000006
   13.06111145   73.58979797    4.90999985    2.69000006
   13.06416702   73.89620209    4.90999985    2.69000006
   13.06750011   75.66269684    4.90999985    2.69000006
   13.07083321   73.05629730    4.90999985    2.69000006
   13.07388878   76.08589935    4.90999985    2.69000006
   13.07722187   75.29010010    4.90999985    2.71000004
   13.08027744   73.71260071    4.90999985    2.69000006
   13.08361053   77.37079620    4.90999985    2.69000006
   13.08694458   73.79019928    4.90999985    2.59999990
   13.09194374   73.79019928    4.90999985    2.73000002
   13.09611034   72.41259766    4.90999985    2.73000002
   13.09916592   72.64430237    4.90999985    2.71000004
   13.10249996   75.08999634    4.90999985    2.71000004
   13.10583401   73.56639862    4.90999985    2.71000004
   13.10888958   73.48349762    4.90999985    2.71000004
   13.11222267   74.36150360    4.90999985    2.69000006
   13.11555576   76.52660370    4.90999985    2.71000004
   13.11861134   76.01619720    4.90999985    2.69000006
   13.12194443   74.76270294    4.90999985    2.69000006
   13.12527752   74.93560028    4.90999985    2.69000006
   13.12833309   73.86969757    4.90999985    2.69000006
   13.13166714   75.87979889    4.90999985    2.69000006
   13.13527775   74.05549622    4.90999985    2.69000006
   13.13833332   72.60959625    4.90999985    2.71000004
   13.15944386   76.08090210    4.90999985    2.69000006
   13.15999985   77.62960052    4.90999985    2.69000006
   13.16305542   72.72190094    4.90999985    2.69000006
   13.16638851   75.90229797    4.90999985    2.69000006
   13.16972256   75.43810272    4.90999985    2.69000006
   13.17277813   74.72879791    4.90999985    2.69000006
   13.17611122   75.96730042    4.90999985    2.71000004
   13.17944431   76.19010162    4.90999985    2.69000006
   13.18249989   74.10350037    4.90999985    2.71000004
   13.18583298   73.51889801    4.90999985    2.71000004
   13.18888855   74.36080170    4.90999985    2.71000004
   13.19444466   74.36080170    4.90999985    2.69000006
   13.19861126   75.89610291    4.90999985    2.69000006
   13.20166683   74.99320221    4.90999985    2.71000004
   13.20499992   75.94259644    4.90999985    2.69000006
   13.20833302   75.74500275    4.90999985    2.71000004
   13.20944405   75.66190338    4.90999985    2.71000004
   13.21194458   76.41690063    4.90999985    2.71000004
   13.21500015   75.64199829    4.90999985    2.71000004
   13.21833324   72.84950256    4.90999985    2.71000004
   13.22138882   72.86990356    4.90999985    2.69000006
   13.22472191   75.69370270    4.90999985    2.71000004
   13.22805500   75.48600006    4.90999985    2.69000006
   13.23111057   72.72460175    4.90999985    2.69000006
   13.23444462   72.35019684    4.90999985    2.71000004
   13.23777771   72.71649933    4.90999985    2.69000006
   13.24083328   73.09770203    4.90999985    2.69000006
   13.24555588   73.09770203    4.90999985    2.71000004
   13.24972248   75.89939880    4.90999985    2.71000004
   13.25305557   74.86470032    4.90999985    2.71000004
   13.25638866   75.39949799    4.90999985    2.71000004
   13.25944424   74.99579620    4.90999985    2.71000004
   13.26055527   73.16500092    4.90999985    2.73000002
   13.26361084   71.55000305    4.90999985    2.71000004
   13.26694393   76.07450104    4.90999985    2.69000006
   13.27027798   73.67949677    4.90999985    2.73000002
   13.27333355   74.64309692    4.90999985    2.71000004
   13.27666664   72.78340149    4.90999985    2.71000004
   13.27999973   73.33010101    4.90999985    2.73000002
   13.28305531   73.26820374    4.90999985    2.75000000
   13.28638935   72.32869720    4.90999985    2.78999996
   13.28944492   72.75740051    4.90999985    2.73000002
   13.29277802   71.76239777    4.90999985    2.71000004
   13.29694462   71.76239777    4.90999985    2.71000004
   13.30111122   74.60820007    4.90999985    2.71000004
   13.30444431   72.98349762    4.90999985    2.71000004
   13.30749989   71.77179718    4.90999985    2.73000002
   13.30944443   74.30460358    4.90999985    2.71000004
   13.31138897   73.31870270    4.90999985    2.71000004
   13.31444454   78.92209625    4.90999985    2.71000004
   13.31777763   73.26879883    4.90999985    2.73000002
   13.32111073   73.73329926    4.90999985    2.73000002
   13.32416630   73.97090149    4.90999985    2.71000004
   13.32750034   74.64579773    4.90999985    2.71000004
   13.33055592   74.96520233    4.90999985    2.71000004
   13.33388901   72.75460052    4.90999985    2.71000004
   13.33722210   75.13870239    4.90999985    2.71000004
   13.34027767   73.08599854    4.90999985    2.71000004
   13.34361076   72.17960358    4.90999985    2.69000006
   13.34833336   72.17960358    4.90999985    2.71000004
   13.35222244   72.47409821    4.90999985    2.73000002
   13.35555553   73.23149872    4.90999985    2.73000002
   13.35888958   75.01110077    4.90999985    2.71000004
   13.35944462   73.17220306    4.90999985    2.73000002
   13.36250019   92.05760193    4.90999985    2.78999996
   13.36555576   -1.00000000   -1.00000000   -1.00000000
   13.36888885   72.86170197    4.90999985    2.17000008
   13.37222195   73.72070313    4.90999985    2.23000002
   13.37527752   70.10700226    4.90999985    2.25000000
   13.37861156   73.96309662    4.90999985    2.75000000
   13.38166714   73.72360229    4.90999985    2.73000002
   13.38500023   75.66840363    4.90999985    2.73000002
   13.38833332   72.33589935    4.90999985    2.73000002
   13.39138889   73.49500275    4.90999985    2.73000002
   13.39472198   72.71800232    4.90999985    2.73000002
   13.39944458   72.71800232    4.90999985    2.71000004
   13.40361118   71.67870331    4.90999985    2.73000002
   13.40666676   74.48419952    4.90999985    2.73000002
   13.40972137   73.23979950    4.90999985    2.73000002
   13.41027737   76.22979736    4.90999985    2.73000002
   13.41361046   72.24909973    4.90999985    2.73000002
   13.41694450   72.83959961    4.90999985    2.73000002
   13.42000008   75.34439850    4.90999985    2.73000002
   13.42333412   73.51920319    4.90999985    2.73000002
   13.42666721   78.59249878    4.90999985    2.75000000
   13.42972279   76.82720184    4.90999985    2.73000002
   13.43305588   73.32599640    4.90999985    2.73000002
   13.43611145   71.94609833    4.90999985    2.73000002
   13.43944454   73.12139893    4.90999985    2.73000002
   13.44277763   70.87300110    4.90999985    2.73000002
   13.44583321   72.54360199    4.90999985    2.73000002
   13.45055580   72.54360199    4.90999985    2.75000000
   13.45472240   71.65219879    4.90999985    2.73000002
   13.45805550   73.84329987    4.90999985    2.75000000
   13.45972157   72.27919769    4.90999985    2.75000000
   13.46138859   73.58020020    4.90999985    2.75000000
   13.46472168   71.03260040    4.90999985    2.73000002
   13.46805477   77.36239624    4.90999985    2.73000002
   13.47111034   73.01170349    4.90999985    2.73000002
   13.47444439   72.08779907    4.90999985    2.71000004
   13.47777748   75.44390106    4.90999985    2.73000002
   13.48083305   73.45590210    4.90999985    2.73000002
   13.48416710   74.66459656    4.90999985    2.73000002
   13.48722267   75.07569885    4.90999985    2.73000002
   13.49055576   74.16829681    4.90999985    2.73000002
   13.49388885   75.15190125    4.90999985    2.71000004
   13.49694443   73.72250366    4.90999985    2.73000002
   13.50166702   73.72250366    4.90999985    2.73000002
   13.50583363   74.79299927    4.90999985    2.73000002
   13.50916672   71.41860199    4.90999985    2.75000000
   13.50972176   73.55770111    4.90999985    2.73000002
   13.51249981   74.77140045    4.90999985    2.73000002
   13.51583290   76.39050293    4.90999985    2.73000002
   13.51916599   74.16680145    4.90999985    2.73000002
   13.52222157   70.87609863    4.90999985    2.73000002
   13.52555561   74.92189789    4.90999985    2.73000002
   13.52888870   74.80919647    4.90999985    2.75000000
   13.53194427   77.94640350    4.90999985    2.73000002
   13.53527832   73.85790253    4.90999985    2.73000002
   13.53833389   74.14779663    4.90999985    2.73000002
   13.54166698   77.49130249    4.90999985    2.73000002
   13.54500008   71.20230103    4.90999985    2.73000002
   13.54805565   72.46990204    4.90999985    2.73000002
   13.55305576   72.46990204    4.90999985    2.75000000
   13.55694485   74.01719666    4.90999985    2.73000002
   13.55972195   73.06420135    4.90999985    2.73000002
   13.56083393   72.41929626    4.90999985    2.73000002
   13.56388950   73.22290039    4.90999985    2.73000002
   13.56722260   72.34829712    4.90999985    2.75000000
   13.57027817   78.43509674    4.90999985    2.73000002
   13.57361126   74.26000214    4.90999985    2.75000000
   13.57694435   74.02189636    4.90999985    2.73000002
   13.57999992   75.77919769    4.90999985    2.73000002
   13.58333302   76.93270111    4.90999985    2.73000002
   13.58666611   73.11740112    4.90999985    2.75000000
   13.58972168   71.71289825    4.90999985    2.73000002
   13.59305477   71.94840240    4.90999985    2.73000002
   13.59611034   72.43090057    4.90999985    2.75000000
   13.59944439   72.46820068    4.90999985    2.59999990
   13.60416698   72.46820068    4.90999985    2.76999998
   13.60833359   76.02829742    4.90999985    2.75000000
   13.60972214   84.52950287    4.90999985    2.48000002
   13.61194515  114.15499878    4.90999985    2.25000000
   13.61500072   74.14129639    4.90999985    2.75000000
   13.61833382   72.96910095    4.90999985    2.73000002
   13.62138939   72.54470062    4.90999985    2.73000002
   13.62472248   71.85690308    4.90999985    2.75000000
   13.62805557   72.50389862    4.90999985    2.73000002
   13.63111115   73.47499847    4.90999985    2.75000000
   13.63444424   71.24009705    4.90999985    2.73000002
   13.63777733   73.06710052    4.90999985    2.75000000
   13.64083290   74.82969666    4.90999985    2.73000002
   13.64416695   74.23729706    4.90999985    2.73000002
   13.64722252   80.00160217    4.90999985    2.73000002
   13.65055561   74.41649628    4.90999985    2.73000002
   13.65527725   74.41649628    4.90999985    2.75000000
   13.65944386   72.89040375    4.90999985    2.73000002
   13.65999985   74.41979980    4.90999985    2.73000002
   13.66305542   74.28739929    4.90999985    2.73000002
   13.66638851   74.70989990    4.90999985    2.73000002
   13.66972256   72.61869812    4.90999985    2.71000004
   13.67277813   75.37789917    4.90999985    2.73000002
   13.67611122   72.79530334    4.90999985    2.73000002
   13.67944431   73.81849670    4.90999985    2.73000002
   13.68249989   74.09300232    4.90999985    2.73000002
   13.68583298   72.85340118    4.90999985    2.73000002
   13.68888855   74.17230225    4.90999985    2.73000002
   13.69222260   72.44349670    4.90999985    2.73000002
   13.69555569   74.01850128    4.90999985    2.73000002
   13.69861126   72.27439880    4.90999985    2.75000000
   13.70194435   73.30970001    4.90999985    2.73000002
   13.70638847   73.30970001    4.90999985    2.73000002
   13.71055508   72.55159760    4.90999985    2.73000002
   13.71388912   72.83129883    4.90999985    2.75000000
   13.71722221   92.30190277    4.90999985    2.09999990
   13.72027779   73.45500183    4.90999985    2.78999996
   13.72361088   74.63909912    4.90999985    2.75000000
   13.72666645   73.87349701    4.90999985    2.73000002
   13.72999954   73.11100006    4.90999985    2.75000000
   13.73333359   71.61119843    4.90999985    2.75000000
   13.73638916   75.48870087    4.90999985    2.75000000
   13.73972225   73.76249695    4.90999985    2.75000000
   13.74305534   71.86979675    4.90999985    2.75000000
   13.74611092   73.38890076    4.90999985    2.73000002
   13.74944496   75.11430359    4.90999985    2.75000000
   13.75249958   73.22570038    4.90999985    2.75000000
   13.75749969   73.22570038    4.90999985    2.73000002
   13.76166630   73.74680328    4.90999985    2.75000000
   13.76500034   72.96489716    4.90999985    2.75000000
   13.76833344   78.85759735    4.90999985    2.73000002
   13.77138901   76.48079681    4.90999985    2.75000000
   13.77472210   74.24179840    4.90999985    2.75000000
   13.77777767   76.75520325    4.90999985    2.75000000
   13.78111076   75.79350281    4.90999985    2.73000002
   13.78444481   73.20379639    4.90999985    2.73000002
   13.78750038   73.90959930    4.90999985    2.73000002
   13.79083347   72.77899933    4.90999985    2.73000002
   13.79416752   72.02519989    4.90999985    2.73000002
   13.79722309   71.28910065    4.90999985    2.75000000
   13.80055618   70.86129761    4.90999985    2.75000000
   13.80388927   73.92700195    4.90999985    2.75000000
   13.80888939   73.92700195    4.90999985    2.75000000
   13.81305599   72.65229797    4.90999985    2.75000000
   13.81611156   72.97200012    4.90999985    2.73000002
   13.81944466   74.42900085    4.90999985    2.75000000
   13.82250023   73.03500366    4.90999985    2.75000000
   13.82583332   73.14579773    4.90999985    2.73000002
   13.82916641   72.74420166    4.90999985    2.75000000
   13.83222198   74.74870300    4.90999985    2.73000002
   13.83555508   72.19080353    4.90999985    2.75000000
   13.83888817   72.11360168    4.90999985    2.75000000
   13.84194374   75.06610107    4.90999985    2.75000000
   13.84527779   72.47319794    4.90999985    2.75000000
   13.84833336   72.08670044    4.90999985    2.75000000
   13.85166740   72.16000366    4.90999985    2.75000000
   13.85500050   74.43070221    4.90999985    2.75000000
   13.86000061   74.43070221    4.90999985    2.73000002
   13.86416721   74.34580231    4.90999985    2.75000000
   13.86722279   72.42680359    4.90999985    2.73000002
   13.87055588   72.53029633    4.90999985    2.73000002
   13.87388897   74.06269836    4.90999985    2.73000002
   13.87694454   70.46549988    4.90999985    2.75000000
   13.88027763   81.66860199    4.90999985    2.75000000
   13.88361073   73.19349670    4.90999985    2.75000000
   13.88666630   71.44000244    4.90999985    2.75000000
   13.89000034   75.36889648    4.90999985    2.75000000
   13.89333344   71.95410156    4.90999985    2.75000000
   13.89638901   79.39659882    4.90999985    2.75000000
   13.89972210   74.31860352    4.90999985    2.75000000
   13.90277767   72.55069733    4.90999985    2.75000000
   13.90611076   74.91670227    4.90999985    2.76999998
   13.91111088   74.91670227    4.90999985    2.75000000
   13.91527748   74.39009857    4.90999985    2.75000000
   13.91861153   72.92500305    4.90999985    2.75000000
   13.92166710   73.52030182    4.90999985    2.75000000
   13.92500019   74.18019867    4.90999985    2.75000000
   13.92833328   73.97679901    4.90999985    2.73000002
   13.93138885   72.65920258    4.90999985    2.75000000
   13.93472195   72.69609833    4.90999985    2.75000000
   13.93777752   71.56970215    4.90999985    2.73000002
   13.94111156   72.73290253    4.90999985    2.75000000
   13.94444466   71.91570282    4.90999985    2.75000000
   13.94750023   81.74500275    4.90999985    2.75000000
   13.95083332   71.66790009    4.90999985    2.75000000
   13.95416641   73.59089661    4.90999985    2.75000000
   13.95722198   73.83489990    4.90999985    2.75000000
   13.96222210   73.83489990    4.90999985    2.75000000
   13.96638870   74.06230164    4.90999985    2.75000000
   13.96972179   74.35269928    4.90999985    2.75000000
   13.97305489   76.05879974    4.90999985    2.75000000
   13.97611046   73.98449707    4.90999985    2.75000000
   13.97944355   73.78790283    4.90999985    2.75000000
   13.98249912   75.98249817    4.90999985    2.75000000
   13.98583317   73.97850037    4.90999985    2.75000000
   13.98916721   75.85959625    4.90999985    2.75000000
   13.99222279   71.29989624    4.90999985    2.75000000
   13.99555588   72.94999695    4.90999985    2.73000002
   13.99888897   79.68399811    4.90999985    2.76999998
   14.00194454   78.77189636    4.90999985    2.75000000
   14.00527763   73.36959839    4.90999985    2.75000000
   14.00833321   72.96869659    4.90999985    2.75000000
   14.01361084   72.96869659    4.90999985    2.75000000
   14.01777744   73.80999756    4.90999985    2.75000000
   14.02083302   71.55899811    4.90999985    2.73000002
   14.02416611   75.07620239    4.90999985    2.75000000
   14.02722168   71.99389648    4.90999985    2.73000002
   14.03055573   74.20279694    4.90999985    2.73000002
   14.03388977   74.15409851    4.90999985    2.73000002
   14.03694534   74.07659912    4.90999985    2.73000002
   14.04027843   73.61519623    4.90999985    2.71000004
   14.04361153   73.76999664    4.90999985    2.71000004
   14.04666710   78.20749664    4.90999985    2.73000002
   14.05000019   74.03399658    4.90999985    2.71000004
   14.05305576   77.01820374    4.90999985    2.71000004
   14.05638885   74.35970306    4.90999985    2.75000000
   14.05972195   73.75180054    4.90999985    2.73000002
   14.06472206   73.75180054    4.90999985    2.75000000
   14.06888866   74.46949768    4.90999985    2.75000000
   14.07194424   74.08809662    4.90999985    2.75000000
   14.07527733   73.47470093    4.90999985    2.75000000
   14.07861137   74.08809662    4.90999985    2.75000000
   14.08166695   74.26679993    4.90999985    2.75000000
   14.08500004   72.45690155    4.90999985    2.75000000
   14.08833313   78.23789978    4.90999985    2.75000000
   14.09138870   75.23950195    4.90999985    2.75000000
   14.09472179   74.46430206    4.90999985    2.75000000
   14.09777737   72.36289978    4.90999985    2.75000000
   14.10111141   77.10630035    4.90999985    2.75000000
   14.10444450   74.00420380    4.90999985    2.73000002
   14.10750008   74.41230011    4.90999985    2.75000000
   14.11083412   74.48339844    4.90999985    2.75000000
   14.11583328   74.48339844    4.90999985    2.75000000
   14.11999989   77.88279724    4.90999985    2.75000000
   14.12333393   75.19229889    4.90999985    2.75000000
   14.12638855   72.14910126    4.90999985    2.75000000
   14.12972260   75.47309875    4.90999985    2.75000000
   14.13305569   73.88909912    4.90999985    2.75000000
   14.13611126   74.18280029    4.90999985    2.75000000
   14.13944435   78.04049683    4.90999985    2.75000000
   14.14277744   72.98509979    4.90999985    2.75000000
   14.14583302   74.57029724    4.90999985    2.75000000
   14.14916611   74.04709625    4.90999985    2.75000000
   14.15222168   74.24620056    4.90999985    2.75000000
   14.15555477   73.99299622    4.90999985    2.75000000
   14.15888882   72.06340027    4.90999985    2.75000000
   14.18000031   72.06340027    4.90999985    2.75000000
   14.18416691   74.94229889    4.90999985    2.75000000
   14.18722248   72.10009766    4.90999985    2.75000000
   14.19055557   72.31980133    4.90999985    2.75000000
   14.19388866   72.51869965    4.90999985    2.75000000
   14.19694424   73.62570190    4.90999985    2.76999998
   14.20027733   70.51080322    4.90999985    2.75000000
   14.20333290   71.69120026    4.90999985    2.75000000
   14.20666695   72.75620270    4.90999985    2.73000002
   14.21000004   71.00399780    4.90999985    2.73000002
   14.21305561   72.65599823    4.90999985    2.75000000
   14.21638870   73.97830200    4.90999985    2.73000002
   14.21972179   74.39869690    4.90999985    2.75000000
   14.22277737   71.61769867    4.90999985    2.75000000
   14.22611046   74.14990234    4.90999985    2.75000000
   14.22749996   72.60579681    4.90999985    2.75000000
   14.23166656   72.60579681    4.90999985    2.75000000
   14.23583317   75.34349823    4.90999985    2.75000000
   14.23888874   73.92790222    4.90999985    2.75000000
   14.24222279   70.66670227    4.90999985    2.75000000
   14.24527836   75.36479950    4.90999985    2.75000000
   14.24861145   72.78430176    4.90999985    2.75000000
   14.25194454   73.30590057    4.90999985    2.75000000
   14.25500011   73.13999939    4.90999985    2.75000000
   14.25833321   73.98110199    4.90999985    2.73000002
   14.26166630   74.43430328    4.90999985    2.76999998
   14.26472187   71.01490021    4.90999985    2.75000000
   14.26805496   71.75759888    4.90999985    2.76999998
   14.27111053   73.99949646    4.90999985    2.76999998
   14.27444458   73.50289917    4.90999985    2.75000000
   14.27750015   75.32180023    4.90999985    2.75000000
   14.27805519   72.53450012    4.90999985    2.76999998
   14.28277779   72.53450012    4.90999985    2.75000000
   14.28694534   74.15100098    4.90999985    2.75000000
   14.29000092   72.45790100    4.90999985    2.75000000
   14.29333401   73.73670197    4.90999985    2.76999998
   14.29666710   74.36009979    4.90999985    2.75000000
   14.29972267   74.57769775    4.90999985    2.75000000
   14.30305576   77.33750153    4.90999985    2.75000000
   14.30638885   74.82060242    4.90999985    2.75000000
   14.30944443   76.62270355    4.90999985    2.75000000
   14.31277752   75.15309906    4.90999985    2.75000000
   14.31611156   74.31739807    4.90999985    2.75000000
   14.31916618   74.53759766    4.90999985    2.75000000
   14.32250023   76.86969757    4.90999985    2.75000000
   14.32583332   73.02950287    4.90999985    2.76999998
   14.32750034   73.00080109    4.90999985    2.75000000
   14.32916641   76.17680359    4.90999985    2.75000000
   14.33388901   76.17680359    4.90999985    2.75000000
   14.33805561   75.63320160    4.90999985    2.75000000
   14.34138870   73.78060150    4.90999985    2.75000000
   14.34444427   75.63379669    4.90999985    2.75000000
   14.34777737   75.89510345    4.90999985    2.75000000
   14.35111141   74.79949951    4.90999985    2.75000000
   14.35416698   73.64230347    4.90999985    2.76999998
   14.35750008   75.34860229    4.90999985    2.75000000
   14.36055565   75.10659790    4.90999985    2.75000000
   14.36388969   72.80989838    4.90999985    2.75000000
   14.36722279   74.11979675    4.90999985    2.75000000
   14.37027836   77.25800323    4.90999985    2.75000000
   14.37361145   71.98940277    4.90999985    2.75000000
   14.37694454   75.73549652    4.90999985    2.75000000
   14.37750053   74.21089935    4.90999985    2.75000000
   14.38027763   73.63140106    4.90999985    2.75000000
   14.38500023   73.63140106    4.90999985    2.75000000
   14.38916683   74.25409698    4.90999985    2.75000000
   14.39249992   74.92600250    4.90999985    2.75000000
   14.39583302   80.47550201    4.90999985    2.75000000
   14.39888859   73.36830139    4.90999985    2.75000000
   14.40222168   74.27010345    4.90999985    2.75000000
   14.40527725   75.73400116    4.90999985    2.75000000
   14.40861034   72.34210205    4.90999985    2.76999998
   14.41194439   77.48410034    4.90999985    2.75000000
   14.41499996   75.71980286    4.90999985    2.75000000
   14.41833401   77.68250275    4.90999985    2.75000000
   14.42166710   75.92800140    4.90999985    2.75000000
   14.42472267   75.64469910    4.90999985    2.75000000
   14.42750072   73.71430206    4.90999985    2.75000000
   14.42833328   73.49210358    4.90999985    2.76999998
   14.43166733   73.86360168    4.90999985    2.75000000
   14.43638897   73.86360168    4.90999985    2.76999998
   14.44055557   74.03949738    4.90999985    2.75000000
   14.44361115   75.05840302    4.90999985    2.75000000
   14.44694424   74.26709747    4.90999985    2.76999998
   14.44999981   72.86009979    4.90999985    2.75000000
   14.45333290   71.99900055    4.90999985    2.75000000
   14.45666695   74.39209747    4.90999985    2.76999998
   14.45972157   71.27420044    4.90999985    2.75000000
   14.46305561   73.47450256    4.90999985    2.76999998
   14.46638870   74.78330231    4.90999985    2.75000000
   14.46944427   76.65010071    4.90999985    2.76999998
   14.47277737   73.41819763    4.90999985    2.75000000
   14.47583294   74.65779877    4.90999985    2.75000000
   14.47749996   75.04589844    4.90999985    2.76999998
   14.47944355   75.66840363    4.90999985    2.75000000
   14.48277760   74.05699921    4.90999985    2.76999998
   14.48750019   74.05699921    4.90999985    2.76999998
   14.49166679   71.49330139    4.90999985    2.75000000
   14.49472237   73.95089722    4.90999985    2.76999998
   14.49805546   74.09359741    4.90999985    2.76999998
   14.50138855   74.97419739    4.90999985    2.76999998
   14.50444412   73.97399902    4.90999985    2.75000000
   14.50777817   75.40859985    4.90999985    2.76999998
   14.51111126   78.23290253    4.90999985    2.76999998
   14.51416683   77.82630157    4.90999985    2.76999998
   14.51749992   76.37419891    4.90999985    2.76999998
   14.52083302   72.49320221    4.90999985    2.76999998
   14.52388859   73.92320251    4.90999985    2.76999998
   14.52722168   73.05919647    4.90999985    2.76999998
   14.52777767   74.19999695    4.90999985    2.76999998
   14.53083324   73.11930084    4.90999985    2.75000000
   14.53416729   75.15170288    4.90999985    2.76999998
   14.53861141   75.15170288    4.90999985    2.75000000
   14.54277802   72.97319794    4.90999985    2.76999998
   14.54611111   73.46820068    4.90999985    2.75000000
   14.54916668   75.44360352    4.90999985    2.76999998
   14.55249977   74.45709991    4.90999985    2.76999998
   14.55583382   77.00969696    4.90999985    2.75000000
   14.55888939   78.18509674    4.90999985    2.75000000
   14.56222248   73.43710327    4.90999985    2.76999998
   14.56527805   81.14510345    4.90999985    2.76999998
   14.56861115   76.12049866    4.90999985    2.76999998
   14.57194424   73.99299622    4.90999985    2.76999998
   14.57499981   74.58090210    4.90999985    2.75000000
   14.57777786   75.03900146    4.90999985    2.75000000
   14.57861137   75.22630310    4.90999985    2.75000000
   14.58194447   72.41410065    4.90999985    2.75000000
   14.58527756   74.01619720    4.90999985    2.75000000
   14.58972168   74.01619720    4.90999985    2.76999998
   14.59388828   75.46730042    4.90999985    2.76999998
   14.59722233   74.69879913    4.90999985    2.76999998
   14.60027790   75.29209900    4.90999985    2.76999998
   14.60361195   72.57540131    4.90999985    2.76999998
   14.60694504   77.10549927    4.90999985    2.75000000
   14.61000061   79.60690308    4.90999985    2.76999998
   14.61333370   74.43750000    4.90999985    2.76999998
   14.61666679   77.49490356    4.90999985    2.76999998
   14.61972237   74.76219940    4.90999985    2.76999998
   14.62305546   73.67430115    4.90999985    2.76999998
   14.62611103   75.43190002    4.90999985    2.76999998
   14.62777805   74.07649994    4.90999985    2.76999998
   14.62972260   73.61879730    4.90999985    2.75000000
   14.63305569   74.81340027    4.90999985    2.76999998
   14.63638878   76.70950317    4.90999985    2.76999998
   14.64111137   76.70950317    4.90999985    2.76999998
   14.64499950   74.26820374    4.90999985    2.76999998
   14.64833355   74.84079742    4.90999985    2.76999998
   14.65166664   76.63449860    4.90999985    2.76999998
   14.65472221   71.62069702    4.90999985    2.76999998
   14.65805531   75.51560211    4.90999985    2.76999998
   14.66138840   73.93389893    4.90999985    2.76999998
   14.66444397   72.08869934    4.90999985    2.75000000
   14.66777802   73.54789734    4.90999985    2.75000000
   14.67083359   75.02439880    4.90999985    2.76999998
   14.67416668   74.19960022    4.90999985    2.78999996
   14.67750072   74.35279846    4.90999985    2.76999998
   14.67805576   71.43650055    4.90999985    2.76999998
   14.68111134   72.73400116    4.90999985    2.76999998
   14.68444443   75.80560303    4.90999985    2.75000000
   14.68777752   75.27670288    4.90999985    2.76999998
   14.69222260   75.27670288    4.90999985    2.76999998
   14.69638920   72.57330322    4.90999985    2.76999998
   14.69944477   75.78179932    4.90999985    2.76999998
   14.70277786   72.78659821    4.90999985    2.76999998
   14.70611095   71.86199951    4.90999985    2.76999998
   14.70916653   71.30660248    4.90999985    2.75000000
   14.71249962   74.41480255    4.90999985    2.76999998
   14.71555519   73.43939972    4.90999985    2.76999998
   14.71888828   73.21450043    4.90999985    2.76999998
   14.72222137   71.85289764    4.90999985    2.76999998
   14.72527695   69.88729858    4.90999985    2.76999998
   14.72805500   73.05120087    4.90999985    2.76999998
   14.72888851   71.65249634    4.90999985    2.76999998
   14.73222160   72.98370361    4.90999985    2.76999998
   14.73555565   72.26399994    4.90999985    2.76999998
   14.73861122   72.65360260    4.90999985    2.76999998
   14.74333382   72.65360260    4.90999985    2.75000000
   14.74750042   76.66719818    4.90999985    2.76999998
   14.75083351   71.73059845    4.90999985    2.75000000
   14.75388908   73.80500031    4.90999985    2.78999996
   14.75722218   74.79650116    4.90999985    2.76999998
   14.76027775   74.26159668    4.90999985    2.76999998
   14.76361084   73.68530273    4.90999985    2.76999998
   14.76694393   74.63269806    4.90999985    2.76999998
   14.76999950   71.21230316    4.90999985    2.75000000
   14.77333355   73.47910309    4.90999985    2.75000000
   14.77666664   74.98750305    4.90999985    2.76999998
   14.77805519   74.82029724    4.90999985    2.76999998
   14.77999973   73.85269928    4.90999985    2.76999998
   14.78333378   74.28759766    4.90999985    2.76999998
   14.78666687   72.56829834    4.90999985    2.76999998
   14.78972244   74.20300293    4.90999985    2.76999998
   14.79444504   74.20300293    4.90999985    2.76999998
   14.79861164   72.74279785    4.90999985    2.78999996
   14.80194473   72.56960297    4.90999985    2.78999996
   14.80500031   74.14420319    4.90999985    2.76999998
   14.80833340   71.86019897    4.90999985    2.75000000
   14.81166649   72.16390228    4.90999985    2.76999998
   14.81472206   74.94570160    4.90999985    2.76999998
   14.81805515   73.46299744    4.90999985    2.76999998
   14.82138920   73.47229767    4.90999985    2.76999998
   14.82444477   75.13390350    4.90999985    2.76999998
   14.82777786   72.87660217    4.90999985    2.76999998
   14.82833290   73.04900360    4.90999985    2.76999998
   14.83166695   72.07039642    4.90999985    2.76999998
   14.83472157   74.39199829    4.90999985    2.76999998
   14.83805561   72.77380371    4.90999985    2.76999998
   14.84111118   74.35079956    4.90999985    2.76999998
   14.84583282   74.35079956    4.90999985    2.76999998
   14.84972191   72.31520081    4.90999985    2.76999998
   14.85305595   72.16919708    4.90999985    2.76999998
   14.85638905   71.58399963    4.90999985    2.76999998
   14.85944462   71.03980255    4.90999985    2.76999998
   14.86277771   71.25039673    4.90999985    2.76999998
   14.86611176   73.52919769    4.90999985    2.78999996
   14.86916637   73.60959625    4.90999985    2.78999996
   14.87250042   78.26940155    4.90999985    2.78999996
   14.87555599   73.68840027    4.90999985    2.78999996
   14.87833309   74.84529877    4.90999985    2.76999998
   14.87944412   75.70300293    4.90999985    2.76999998
   14.88249969   73.78829956    4.90999985    2.78999996
   14.88583279   73.26940155    4.90999985    2.76999998
   14.88916683   73.99520111    4.90999985    2.76999998
   14.89222240   72.51309967    4.90999985    2.78999996
   14.89694405   72.51309967    4.90999985    2.78999996
   14.90111065   71.54730225    4.90999985    2.76999998
   14.90416622   72.82929993    4.90999985    2.76999998
   14.90749931   75.44979858    4.90999985    2.76999998
   14.91083336   73.59420013    4.90999985    2.76999998
   14.91388893   75.95559692    4.90999985    2.76999998
   14.91722298   76.84790039    4.90999985    2.76999998
   14.92027855   74.90989685    4.90999985    2.76999998
   14.92361164   73.07340240    4.90999985    2.76999998
   14.92694473   74.62100220    4.90999985    2.76999998
   14.92833328   74.21330261    4.90999985    2.76999998
   14.93055630   76.85929871    4.90999985    2.76999998
   14.93361092   74.52330017    4.90999985    2.76999998
   14.93694496   76.38739777    4.90999985    2.78999996
   14.94027805   76.96600342    4.90999985    2.76999998
   14.94333363   72.77249908    4.90999985    2.76999998
   14.94805527   72.77249908    4.90999985    2.76999998
   14.95222187   73.49069977    4.90999985    2.76999998
   14.95555496   72.78230286    4.90999985    2.76999998
   14.95861053   74.80359650    4.90999985    2.76999998
   14.96194458   75.39209747    4.90999985    2.76999998
   14.96500015   78.96859741    4.90999985    2.76999998
   14.96833324   76.03430176    4.90999985    2.76999998
   14.97166634   73.74400330    4.90999985    2.76999998
   14.97472191   72.45680237    4.90999985    2.76999998
   14.97805500   75.65660095    4.90999985    2.76999998
   14.97861099   74.88839722    4.90999985    2.76999998
   14.98194408   74.71810150    4.90999985    2.75000000
   14.98500061   75.12370300    4.90999985    2.76999998
   14.98833370   72.94709778    4.90999985    2.76999998
   14.99138927   75.80799866    4.90999985    2.76999998
   14.99472237   73.83370209    4.90999985    2.75000000
   14.99916649   73.83370209    4.90999985    2.76999998
   15.00333309   74.30729675    4.90999985    2.76999998
   15.00666714   74.51670074    4.90999985    2.76999998
   15.00972176   71.72380066    4.90999985    2.76999998
   15.01305580   74.01619720    4.90999985    2.75000000
   15.01638889   74.25409698    4.90999985    2.76999998
   15.01944447   74.97190094    4.90999985    2.75000000
   15.02277756   73.74490356    4.90999985    2.75000000
   15.02611065   73.56600189    4.90999985    2.75000000
   15.02861118   72.83999634    4.90999985    2.73000002
   15.02972221   71.94709778    4.90999985    2.75000000
   15.03277779   72.34290314    4.90999985    2.75000000
   15.03611183   71.40119934    4.90999985    2.75000000
   15.03944492   74.56140137    4.90999985    2.73000002
   15.04250050   71.65470123    4.90999985    2.73000002
   15.04583359   74.05680084    4.90999985    2.73000002
   15.05055618   74.05680084    4.90999985    2.73000002
   15.05444431   82.55180359    4.90999985    2.75000000
   15.05777836   72.70169830    4.90999985    2.75000000
   15.06111145   76.80960083    4.90999985    2.75000000
   15.06416702   74.05039978    4.90999985    2.76999998
   15.06750011   73.60849762    4.90999985    2.75000000
   15.07083321   74.05339813    4.90999985    2.76999998
   15.07388878   73.94709778    4.90999985    2.78999996
   15.07722187   79.02259827    4.90999985    2.78999996
   15.07861137   74.58740234    4.90999985    2.78999996
   15.08083344   75.23079681    4.90999985    2.76999998
   15.08388901   71.08290100    4.90999985    2.76999998
   15.08722210   74.74369812    4.90999985    2.76999998
   15.09055519   76.78130341    4.90999985    2.76999998
   15.09361076   76.56230164    4.90999985    2.76999998
   15.09694386   73.53780365    4.90999985    2.76999998
   15.10166740   73.53780365    4.90999985    2.76999998
   15.10583401   76.03399658    4.90999985    2.76999998
   15.10888958   71.64990234    4.90999985    2.76999998
   15.11222267   75.20099640    4.90999985    2.78999996
   15.11555576   76.55599976    4.90999985    2.76999998
   15.11861134   73.81759644    4.90999985    2.76999998
   15.12194443   76.41220093    4.90999985    2.76999998
   15.12500000   72.27369690    4.90999985    2.76999998
   15.12833309   74.12259674    4.90999985    2.76999998
   15.12888908   75.56420135    4.90999985    2.71000004
   15.13222218   79.14739990    4.90999985    2.73000002
   15.13527775   74.41850281    4.90999985    2.75000000
   15.13861084   74.24980164    4.90999985    2.76999998
   15.14194393   73.59929657    4.90999985    2.76999998
   15.14499950   76.55609894    4.90999985    2.78999996
   15.14833355   75.62229919    4.90999985    2.76999998
   15.15277767   75.62229919    4.90999985    2.76999998
   15.15694427   72.86109924    4.90999985    2.75000000
   15.16027737   73.82920074    4.90999985    2.76999998
   15.16333294   73.65419769    4.90999985    2.75000000
   15.16666698   72.46820068    4.90999985    2.73000002
   15.16972256  118.86399841    4.90999985    2.75000000
   15.17305565   74.20870209    4.90999985    2.75000000
   15.17638874   73.61100006    4.90999985    2.75000000
   15.19361115   73.22470093    4.90999985    2.76999998
   15.19611073   75.45410156    4.90999985    2.75000000
   15.19944477   73.06079865    4.90999985    2.71000004
   15.20416641   73.06079865    4.90999985    2.67000008
   15.20833302   75.43219757    4.90999985    2.73000002
   15.21138859   75.76979828    4.90999985    2.69000006
   15.21472168   74.63520050    4.90999985    2.78999996
   15.21805477   72.67279816    4.90999985    2.69000006
   15.22111034   76.67500305    4.90999985    2.73000002
   15.22444439   77.23410034    4.90999985    2.67000008
   15.22749996   82.25830078    4.90999985    2.64000010
   15.23083305   82.10070038    4.90999985    2.50000000
   15.23416710   78.83529663    4.90999985    2.61999989
   15.23722267   78.04679871    4.90999985    2.64000010
   15.24055576   87.29830170    4.90999985    2.53999996
   15.24361134   94.39949799    4.90999985    2.23000002
   15.24416733   89.38339996    4.90999985    2.15000010
   15.24750042   92.06510162    4.90999985    2.42000008
   15.25083351   87.38079834    4.90999985    2.44000006
   15.25527763   87.38079834    4.90999985    2.42000008
   15.25944424   81.55680084    4.90999985    2.44000006
   15.26277733   80.63890076    4.90999985    2.55999994
   15.26583290   73.04389954    4.90999985    2.57999992
   15.26916599   75.03980255    4.90999985    2.69000006
   15.27222157   71.71910095    4.90999985    2.64000010
   15.27555561   75.42410278    4.90999985    2.75000000
   15.27888870   73.89389801    4.90999985    2.76999998
   15.28194427   72.59829712    4.90999985    2.78999996
   15.28527832   73.41159821    4.90999985    2.78999996
   15.28861141   73.30500031    4.90999985    2.76999998
   15.29166698   71.78340149    4.90999985    2.76999998
   15.29361153   72.49240112    4.90999985    2.76999998
   15.29527855   72.27709961    4.90999985    2.76999998
   15.29861164   71.90750122    4.90999985    2.76999998
   15.30194473   72.18129730    4.90999985    2.76999998
   15.30638885   72.18129730    4.90999985    2.76999998
   15.31055546   72.66300201    4.90999985    2.78999996
   15.31388950   72.54309845    4.90999985    2.76999998
   15.31694412   71.16500092    4.90999985    2.76999998
   15.32027817   72.48840332    4.90999985    2.78999996
   15.32361126   71.23529816    4.90999985    2.78999996
   15.32666683   76.05549622    4.90999985    2.76999998
   15.32999992   73.18750000    4.90999985    2.76999998
   15.33333302   73.21549988    4.90999985    2.76999998
   15.33638859   72.48359680    4.90999985    2.76999998
   15.33972168   74.59590149    4.90999985    2.76999998
   15.34305477   72.86360168    4.90999985    2.76999998
   15.34361076   72.46779633    4.90999985    2.76999998
   15.34638882   73.57489777    4.90999985    2.78999996
   15.34972191   72.04350281    4.90999985    2.76999998
   15.35305595   74.51689911    4.90999985    2.76999998
   15.35750008   74.51689911    4.90999985    2.76999998
   15.36166668   72.96759796    4.90999985    2.76999998
   15.36500072   76.72560120    4.90999985    2.76999998
   15.36833382   74.47850037    4.90999985    2.76999998
   15.37138939   76.95089722    4.90999985    2.76999998
   15.37472248   71.30390167    4.90999985    2.76999998
   15.37805557   74.87909698    4.90999985    2.76999998
   15.38111115   73.50009918    4.90999985    2.76999998
   15.38444424   72.14949799    4.90999985    2.76999998
   15.38749981   74.26809692    4.90999985    2.78999996
   15.39083290   73.79080200    4.90999985    2.76999998
   15.39361095   73.07559967    4.90999985    2.76999998
   15.39444447   71.35130310    4.90999985    2.78999996
   15.39777756   73.32330322    4.90999985    2.78999996
   15.40111065   71.57980347    4.90999985    2.76999998
   15.40416622   75.37049866    4.90999985    2.76999998
   15.40888882   75.37049866    4.90999985    2.76999998
   15.41305542   73.51329803    4.90999985    2.76999998
   15.41611099   74.24780273    4.90999985    2.76999998
   15.41944504   76.58650208    4.90999985    2.76999998
   15.42277813   71.10530090    4.90999985    2.76999998
   15.42583370   70.98799896    4.90999985    2.76999998
   15.42916679   71.63619995    4.90999985    2.78999996
   15.43222237   72.82389832    4.90999985    2.76999998
   15.43555546   73.48899841    4.90999985    2.76999998
   15.43888855   72.91490173    4.90999985    2.76999998
   15.44194412   75.37090302    4.90999985    2.76999998
   15.44361115   71.92179871    4.90999985    2.76999998
   15.44555569   74.45140076    4.90999985    2.76999998
   15.44888878   72.81680298    4.90999985    2.76999998
   15.45222187   75.01129913    4.90999985    2.76999998
   15.45527744   71.96440125    4.90999985    2.76999998
   15.46000004   71.96440125    4.90999985    2.76999998
   15.46416664   73.14530182    4.90999985    2.76999998
   15.46749973   76.09559631    4.90999985    2.75000000
   15.47055531   81.37200165    4.90999985    2.76999998
   15.47388840   74.50000000    4.90999985    2.76999998
   15.47694397   74.18609619    4.90999985    2.76999998
   15.48027706   73.58000183    4.90999985    2.76999998
   15.48361111   76.15769958    4.90999985    2.76999998
   15.48666668   76.22660065    4.90999985    2.76999998
   15.49000072   75.24469757    4.90999985    2.76999998
   15.49333382   75.37249756    4.90999985    2.76999998
   15.49361134   76.38619995    4.90999985    2.76999998
   15.49694443   74.13649750    4.90999985    2.76999998
   15.50027752   77.83660126    4.90999985    2.76999998
   15.50333309   73.35220337    4.90999985    2.75000000
   15.50666714   74.14440155    4.90999985    2.76999998
   15.51111126   74.14440155    4.90999985    2.76999998
   15.51527786   75.03379822    4.90999985    2.76999998
   15.51861095   73.12830353    4.90999985    2.78999996
   15.52166653   71.82299805    4.90999985    2.76999998
   15.52499962   75.01689911    4.90999985    2.76999998
   15.52833271   73.83190155    4.90999985    2.76999998
   15.53138828   71.80100250    4.90999985    2.75000000
   15.53472233   73.54440308    4.90999985    2.76999998
   15.53805637   73.11049652    4.90999985    2.76999998
   15.54111195   74.11009979    4.90999985    2.76999998
   15.54388905   79.53530121    4.90999985    2.76999998
   15.54472256   73.30049896    4.90999985    2.76999998
   15.54805565   73.66889954    4.90999985    2.76999998
   15.55138874   74.79160309    4.90999985    2.76999998
   15.55444431   74.58380127    4.90999985    2.76999998
   15.55777836   74.12689972    4.90999985    2.76999998
   15.56222248   74.12689972    4.90999985    2.76999998
   15.56638908   73.86810303    4.90999985    2.76999998
   15.56972218   71.83640289    4.90999985    2.78999996
   15.57305527   72.67880249    4.90999985    2.76999998
   15.57611084   71.51959991    4.90999985    2.76999998
   15.57944393   77.75350189    4.90999985    2.76999998
   15.58277798   71.44149780    4.90999985    2.76999998
   15.58583260   70.67729950    4.90999985    2.76999998
   15.58916664   72.54789734    4.90999985    2.76999998
   15.59222221   72.66809845    4.90999985    2.76999998
   15.59388828   72.64510345    4.90999985    2.76999998
   15.59583282   74.45210266    4.90999985    2.78999996
   15.59916592   75.84870148    4.90999985    2.78999996
   15.60249996   72.74639893    4.90999985    2.76999998
   15.60555553   71.08750153    4.90999985    2.76999998
   15.60888958   74.60430145    4.90999985    2.76999998
   15.61361122   74.60430145    4.90999985    2.76999998
   15.61777782   71.61630249    4.90999985    2.76999998
   15.62083340   72.28109741    4.90999985    2.76999998
   15.62416649   71.17990112    4.90999985    2.75000000
   15.62750053   73.30030060    4.90999985    2.76999998
   15.63055611   72.31189728    4.90999985    2.76999998
   15.63388920   71.40899658    4.90999985    2.76999998
   15.63694477   72.17690277    4.90999985    2.76999998
   15.64027786   73.20040131    4.90999985    2.76999998
   15.64361095   72.23390198    4.90999985    2.76999998
   15.64416695   71.56950378    4.90999985    2.76999998
   15.64722252   73.34320068    4.90999985    2.76999998
   15.65055561   71.84310150    4.90999985    2.75000000
   15.65388870   71.82029724    4.90999985    2.75000000
   15.65694427   72.71659851    4.90999985    2.76999998
   15.66027737   71.95890045    4.90999985    2.76999998
   15.66472149   71.95890045    4.90999985    2.75000000
   15.66888905   72.49980164    4.90999985    2.75000000
   15.67222214   72.12699890    4.90999985    2.75000000
   15.67527771   70.65000153    4.90999985    2.76999998
   15.67861176   73.32620239    4.90999985    2.75000000
   15.68166733   73.04239655    4.90999985    2.76999998
   15.68500042   71.59470367    4.90999985    2.75000000
   15.68833351   72.84909821    4.90999985    2.75000000
   15.69138908   72.59349823    4.90999985    2.76999998
   15.79777813   -1.00000000   -1.00000000   -1.00000000
   15.89638901   -1.00000000   -1.00000000   -1.00000000
   16.04416656   -1.00000000   -1.00000000   -1.00000000
   16.07222366   65.31759644    4.90999985    2.78999996
   16.07555580   71.63510132    4.90999985    2.76999998
   16.07861137   72.09439850    4.90999985    2.76999998
   16.08194542   71.21260071    4.90999985    2.78999996
   16.08500099   73.68319702    4.90999985    2.76999998
   16.08833313   74.15489960    4.90999985    2.76999998
   16.09166718   74.68979645    4.90999985    2.78999996
   16.09472275   75.29190063    4.90999985    2.78999996
   16.10083389   75.29190063    4.90999985    2.76999998
   16.10499954   75.55609894    4.90999985    2.76999998
   16.10805511   73.85199738    4.90999985    2.76999998
   16.11138916   75.16159821    4.90999985    2.76999998
   16.11472321   73.30480194    4.90999985    2.76999998
   16.11777878   76.02570343    4.90999985    2.76999998
   16.12111092   71.58979797    4.90999985    2.76999998
   16.12222290   74.70420074    4.90999985    2.76999998
   16.12472153   76.40010071    4.90999985    2.76999998
   16.12777710   72.70970154    4.90999985    2.76999998
   16.13111115   71.55190277    4.90999985    2.76999998
   16.13416672   73.54669952    4.90999985    2.76999998
   16.13750076   72.59420013    4.90999985    2.76999998
   16.14083290   71.53780365    4.90999985    2.76999998
   16.14388847   74.81629944    4.90999985    2.76999998
   16.14722252   76.33730316    4.90999985    2.76999998
   16.15194321   76.33730316    4.90999985    2.76999998
   16.15611076   73.01629639    4.90999985    2.76999998
   16.15944481   69.45040131    4.90999985    2.75000000
   16.16250038   72.78880310    4.90999985    2.76999998
   16.16583252   71.70200348    4.90999985    2.76999998
   16.16888809   71.26249695    4.90999985    2.76999998
   16.17222214   72.43450165    4.90999985    2.76999998
   16.17277718   70.05650330    4.90999985    2.76999998
   16.17583275   74.21829987    4.90999985    2.76999998
   16.17916679   73.80100250    4.90999985    2.78999996
   16.18222237   72.67289734    4.90999985    2.76999998
   16.18555450   73.41739655    4.90999985    2.76999998
   16.18888855   72.54660034    4.90999985    2.76999998
   16.19194412   73.15720367    4.90999985    2.78999996
   16.19527626   74.19419861    4.90999985    2.78999996
   16.19861031   72.18440247    4.90999985    2.78999996
   16.20305634   72.18440247    4.90999985    2.76999998
   16.20722389   72.25869751    4.90999985    2.76999998
   16.21055603   73.73670197    4.90999985    2.76999998
   16.21361160   77.12069702    4.90999985    2.78999996
   16.21694565   71.51239777    4.90999985    2.76999998
   16.22027779   71.27359772    4.90999985    2.76999998
   16.22222328   72.00679779    4.90999985    2.78999996
   16.22389030   71.07019806    4.90999985    2.76999998
   16.22694588   71.02169800    4.90999985    2.78999996
   16.23027802   72.83580017    4.90999985    2.76999998
   16.23333359   71.38480377    4.90999985    2.76999998
   16.23666763   74.27020264    4.90999985    2.76999998
   16.23999977   71.38289642    4.90999985    2.76999998
   16.24305534   73.80670166    4.90999985    2.76999998
   16.24638939   71.11769867    4.90999985    2.76999998
   16.24972153   71.85250092    4.90999985    2.76999998
   16.25444412   71.85250092    4.90999985    2.76999998
   16.25833321   70.27079773    4.90999985    2.75000000
   16.26166725   72.25559998    4.90999985    2.76999998
   16.26499939   72.51399994    4.90999985    2.76999998
   16.26805496   71.10900116    4.90999985    2.76999998
   16.27138901   74.49990082    4.90999985    2.76999998
   16.27222252   72.31559753    4.90999985    2.78999996
   16.27499962   71.46569824    4.90999985    2.75000000
   16.27805519   71.44229889    4.90999985    2.76999998
   16.28138924   74.04039764    4.90999985    2.76999998
   16.28472137   71.16560364    4.90999985    2.76999998
   16.28777695   72.67620087    4.90999985    2.76999998
   16.29111099   73.62000275    4.90999985    2.76999998
   16.29416656   69.78790283    4.90999985    2.76999998
   16.29749870   71.21559906    4.90999985    2.76999998
   16.30083275   70.61949921    4.90999985    2.78999996
   16.30555534   70.61949921    4.90999985    2.76999998
   16.30972099   72.54070282    4.90999985    2.76999998
   16.31277657   72.05789948    4.90999985    2.76999998
   16.31611061   71.15570068    4.90999985    2.76999998
   16.31944466   72.33309937    4.90999985    2.76999998
   16.32222366   72.15350342    4.90999985    2.76999998
   16.32305717   70.77089691    4.90999985    2.76999998
   16.32611275   72.56710052    4.90999985    2.76999998
   16.32944489   73.79779816    4.90999985    2.76999998
   16.33277893   71.22160339    4.90999985    2.76999998
   16.33583450   71.55460358    4.90999985    2.78999996
   16.33916664   71.64450073    4.90999985    2.76999998
   16.34222221   72.20670319    4.90999985    2.76999998
   16.34555626   71.19909668    4.90999985    2.76999998
   16.34889030   70.81359863    4.90999985    2.76999998
   16.35194397   71.51660156    4.90999985    2.76999998
   16.35666656   71.51660156    4.90999985    2.76999998
   16.36083412   71.59100342    4.90999985    2.76999998
   16.36416626   71.48059845    4.90999985    2.76999998
   16.36722183   74.74949646    4.90999985    2.78999996
   16.37055588   72.13510132    4.90999985    2.76999998
   16.37222290   70.65370178    4.90999985    2.78999996
   16.37416649   71.79949951    4.90999985    2.76999998
   16.37722206   71.53130341    4.90999985    2.76999998
   16.38055611   72.47129822    4.90999985    2.76999998
   16.38388824   73.58940125    4.90999985    2.78999996
   16.38694382   72.13490295    4.90999985    2.76999998
   16.39027786   70.70870209    4.90999985    2.76999998
   16.39333344   74.88890076    4.90999985    2.78999996
   16.39666748   73.61280060    4.90999985    2.76999998
   16.39999962   72.32219696    4.90999985    2.76999998
   16.40305519   72.38140106    4.90999985    2.76999998
   16.40777779   72.38140106    4.90999985    2.76999998
   16.41194344   72.50620270    4.90999985    2.78999996
   16.41527748   75.35659790    4.90999985    2.76999998
   16.41833305   73.15619659    4.90999985    2.76999998
   16.42166519   74.35070038    4.90999985    2.76999998
   16.42222214   75.45200348    4.90999985    2.76999998
   16.42527771   72.52510071    4.90999985    2.76999998
   16.42860985   74.00080109    4.90999985    2.76999998
   16.43166542   72.84780121    4.90999985    2.76999998
   16.43499947   73.05000305    4.90999985    2.78999996
   16.43805504   71.33760071    4.90999985    2.78999996
   16.44138718   71.72519684    4.90999985    2.76999998
   16.44472122   72.28469849    4.90999985    2.76999998
   16.44777679   74.83180237    4.90999985    2.75000000
   16.45111275   72.41449738    4.90999985    2.75000000
   16.45444489   72.09590149    4.90999985    2.76999998
   16.45916748   72.09590149    4.90999985    2.75000000
   16.46305656   72.93859863    4.90999985    2.71000004
   16.46638870   73.83489990    4.90999985    2.66000009
   16.46972275   73.87719727    4.90999985    2.64000010
   16.47222328   74.92240143    4.90999985    2.55999994
   16.47333336   79.98960114    4.90999985    2.64000010
   16.47666740   75.77899933    4.90999985    2.50000000
   16.47972298   79.55509949    4.90999985    2.40000010
   16.48305511   80.24690247    4.90999985    2.59999990
   16.48611069   78.99189758    4.90999985    2.48000002
   16.48944473   78.80509949    4.90999985    2.51999998
   16.49277878   81.33860016    4.90999985    2.53999996
   16.49583435   78.19629669    4.90999985    2.53999996
   16.49916649   76.04209900    4.90999985    2.48000002
   16.50250053   77.18299866    4.90999985    2.57999992
   16.50555611   78.48970032    4.90999985    2.57999992
   16.51027870   78.48970032    4.90999985    2.55999994
   16.51444435   73.67630005    4.90999985    2.67000008
   16.51749992   74.80899811    4.90999985    2.67000008
   16.52083397   76.57150269    4.90999985    2.73000002
   16.52222252   74.62899780    4.90999985    2.71000004
   16.52444458   79.86900330    4.90999985    2.66000009
   16.52777672   88.46700287    4.90999985    2.59999990
   16.53083229   78.55130005    4.90999985    2.25000000
   16.53416634   74.98490143    4.90999985    2.46000004
   16.53722191   77.82260132    4.90999985    2.53999996
   16.54055595   85.54270172    4.90999985    2.61999989
   16.54388809   86.45590210    4.90999985    2.48000002
   16.54694366   90.53279877    4.90999985    2.32999992
   16.55027771   89.75630188    4.90999985    2.40000010
   16.55360985   87.08180237    4.90999985    2.30999994
   16.55666542   80.91889954    4.90999985    2.42000008
   16.56138802   80.91889954    4.90999985    2.28999996
   16.56555557  248.98199463    4.90999985    2.03999996
   16.56888962   95.14600372    4.90999985    2.03999996
   16.57194519   97.04489899    4.90999985    2.46000004
   16.57250023   87.02320099    4.90999985    2.32999992
   16.57555580  107.10700226    4.90999985    2.39000010
   16.57861137   99.20120239    4.90999985    2.36999989
   16.58194542   91.66799927    4.90999985    2.09999990
   16.58527756   -1.00000000    4.90999985    2.01999998
   16.58833313   94.96499634    4.90999985    2.00000000
   16.59166718  119.48300171    4.90999985    2.15000010
   16.59500122  101.22599792    4.90999985    2.21000004
   16.59805679  115.47399902    4.90999985    2.01999998
   16.60138893  107.04699707    4.90999985    1.86000001
   16.60444450  192.86099243    4.90999985    1.73000002
   16.60777855   -1.00000000    4.90999985    1.94000006
   16.61666679   -1.00000000    4.90999985    1.50000000
   16.61972237   -1.00000000    4.90999985    1.96000004
   16.62361145   -1.00000000    4.90999985    1.86000001
   16.62666702   -1.00000000    4.90999985    1.61000001
   16.63000107   -1.00000000    4.90999985    2.32999992
   16.63305473   -1.00000000    4.90999985    1.60000002
   16.63638878   -1.00000000    4.90999985    1.55999994
   16.63972282   -1.00000000    4.90999985    1.63000000
   16.64277840   -1.00000000    4.90999985    1.66999996
   16.64611053   -1.00000000    4.90999985    1.63000000
   16.64944458   -1.00000000    4.90999985    1.86000001
   16.65250015   -1.00000000    4.90999985    2.00000000
   16.65583229   -1.00000000    4.90999985    1.89999998
   16.65888786  147.60699463    4.90999985    1.75000000
   16.66388893  147.60699463    4.90999985    2.01999998
   16.66777802  105.83399963    4.90999985    2.30999994
   16.67111015   94.50869751    4.90999985    2.23000002
   16.67249870  170.03399658    4.90999985    2.32999992
   16.67472076   98.99279785    4.90999985    2.00000000
   16.67805481   84.82050323    4.90999985    2.25000000
   16.68111038   82.91970062    4.90999985    2.09999990
   16.68444443   77.97689819    4.90999985    2.36999989
   16.68750000   80.35119629    4.90999985    2.48000002
   16.69083214   79.99250031    4.90999985    2.32999992
   16.69416618   77.20590210    4.90999985    2.46000004
   16.69722176   76.29869843    4.90999985    2.55999994
   16.70055580   71.00330353    4.90999985    2.66000009
   16.70388985   74.08999634    4.90999985    2.67000008
   16.70694542   71.42089844    4.90999985    2.73000002
   16.71027946   73.04380035    4.90999985    2.76999998
   16.71500015   73.04380035    4.90999985    2.75000000
   16.71916771   71.83769989    4.90999985    2.76999998
   16.72222328   71.77120209    4.90999985    2.76999998
   16.72277832   73.37239838    4.90999985    2.76999998
   16.72611237   73.24759674    4.90999985    2.76999998
   16.72944450   73.10269928    4.90999985    2.76999998
   16.73250008   71.28299713    4.90999985    2.76999998
   16.73583412   75.88189697    4.90999985    2.78999996
   16.73888969   73.25820160    4.90999985    2.61999989
   16.74222183   72.81790161    4.90999985    2.66000009
   16.74555588   72.98919678    4.90999985    2.78999996
   16.74861145   72.11810303    4.90999985    2.76999998
   16.75194359   75.19210052    4.90999985    2.76999998
   16.75527763   71.42919922    4.90999985    2.76999998
   16.75833321   71.82070160    4.90999985    2.76999998
   16.76166725   74.38009644    4.90999985    2.76999998
   16.76611137   74.38009644    4.90999985    2.76999998
   16.77027702   72.03949738    4.90999985    2.76999998
   16.77277756   71.35859680    4.90999985    2.78999996
   16.77388954   71.15059662    4.90999985    2.76999998
   16.77722168   75.08129883    4.90999985    2.76999998
   16.78027725   72.42890167    4.90999985    2.78999996
   16.78361130   73.05549622    4.90999985    2.78999996
   16.78666687   73.48729706    4.90999985    2.75000000
   16.78999901   77.41989899    4.90999985    2.69000006
   16.79333305   70.72619629    4.90999985    2.66000009
   16.79638863   75.12030029    4.90999985    2.67000008
   16.79972076   72.20600128    4.90999985    2.64000010
   16.80305481   77.21970367    4.90999985    2.67000008
   16.80611038   76.06079865    4.90999985    2.53999996
   16.80944443   77.04920197    4.90999985    2.71000004
   16.81250000   72.56050110    4.90999985    2.71000004
   16.81722260   72.56050110    4.90999985    2.76999998
   16.82139015   73.32350159    4.90999985    2.76999998
   16.82277870   71.18890381    4.90999985    2.75000000
   16.82500076   71.94259644    4.90999985    2.75000000
   16.82833481   71.03810120    4.90999985    2.78999996
   16.83139038   73.30380249    4.90999985    2.78999996
   16.83472252   81.01460266    4.90999985    2.46000004
   16.83805656   73.55989838    4.90999985    2.64000010
   16.84111214   73.34269714    4.90999985    2.80999994
   16.84444427   72.57489777    4.90999985    2.80999994
   16.84749985   71.12950134    4.90999985    2.78999996
   16.85083389   74.46669769    4.90999985    2.78999996
   16.85416794   73.40920258    4.90999985    2.78999996
   16.85722351   73.41059875    4.90999985    2.75000000
   16.86055565   73.17070007    4.90999985    2.76999998
   16.86388969   71.45529938    4.90999985    2.78999996
   16.86861038   71.45529938    4.90999985    2.75000000
   16.87249947   73.99310303    4.90999985    2.76999998
   16.87305641   75.54340363    4.90999985    2.76999998
   16.87638855   72.89289856    4.90999985    2.75000000
   16.87972260   72.72940063    4.90999985    2.76999998
   16.88277817   71.05870056    4.90999985    2.76999998
   16.88611031   71.65260315    4.90999985    2.75000000
   16.88944435   72.86900330    4.90999985    2.76999998
   16.89249992   74.86309814    4.90999985    2.76999998
   16.89583397   73.16390228    4.90999985    2.76999998
   16.89888954   72.02050018    4.90999985    2.76999998
   16.90222168   72.54060364    4.90999985    2.75000000
   16.90555573   71.74289703    4.90999985    2.75000000
   16.90861130   71.00450134    4.90999985    2.76999998
   16.91194344   71.25279999    4.90999985    2.75000000
   16.91527748   72.58809662    4.90999985    2.76999998
   16.91972160   72.58809662    4.90999985    2.76999998
   16.92388916   72.86990356    4.90999985    2.75000000
   16.92694473   71.81230164    4.90999985    2.78999996
   16.93027687   72.44110107    4.90999985    2.76999998
   16.93333244   70.76170349    4.90999985    2.76999998
   16.93666649   70.23410034    4.90999985    2.76999998
   16.93999863   71.79969788    4.90999985    2.76999998
   16.94305420   72.88659668    4.90999985    2.76999998
   16.94638824   71.68530273    4.90999985    2.71000004
   16.94972038   72.25939941    4.90999985    2.67000008
   16.95277786   71.64309692    4.90999985    2.73000002
   16.95611191   73.10070038    4.90999985    2.76999998
   16.95944595   71.81839752    4.90999985    2.76999998
   16.96250153   73.19069672    4.90999985    2.76999998
   16.96583366   77.76550293    4.90999985    2.67000008
   16.97083473   77.76550293    4.90999985    2.64000010
   16.97500038   74.44280243    4.90999985    2.46000004
   16.97805595   73.10880280    4.90999985    2.75000000
   16.98139000   76.07379913    4.90999985    2.78999996
   16.98472214   73.90129852    4.90999985    2.55999994
   16.98777771  145.52999878    4.90999985    2.42000008
   16.99111176  102.82299805    4.90999985    2.26999998
   16.99444389   92.22319794    4.90999985    2.30999994
   16.99749947   81.67459869    4.90999985    2.36999989
   17.00083351   82.42839813    4.90999985    2.55999994
   17.00388908   90.27690125    4.90999985    2.50000000
   17.00722313   77.91519928    4.90999985    2.51999998
   17.01055527   81.27670288    4.90999985    2.61999989
   17.01361084   82.71309662    4.90999985    2.25000000
   17.01694489   83.84780121    4.90999985    2.46000004
   17.02194405   83.84780121    4.90999985    2.75000000
   17.02611160   73.87380219    4.90999985    2.64000010
   17.02944374   72.87760162    4.90999985    2.71000004
   17.03249931   74.23210144    4.90999985    2.78999996
   17.03583336   77.43319702    4.90999985    2.64000010
   17.03916550   83.94589996    4.90999985    2.46000004
   17.04222107   73.17819977    4.90999985    2.50000000
   17.04555511   74.71510315    4.90999985    2.71000004
   17.04861069   73.21350098    4.90999985    2.76999998
   17.05194283   71.40720367    4.90999985    2.76999998
   17.05527687   72.11540222    4.90999985    2.76999998
   17.05833244   74.32810211    4.90999985    2.76999998
   17.06166649   73.36190033    4.90999985    2.76999998
   17.06499863   73.03730011    4.90999985    2.75000000
   17.06805611   72.17330170    4.90999985    2.78999996
   17.08972359   74.72920227    4.90999985    2.75000000
   17.09000015   72.41950226    4.90999985    2.75000000
   17.09333420   72.50340271    4.90999985    2.76999998
   17.09638977   73.71520233    4.90999985    2.76999998
   17.09972191   72.80100250    4.90999985    2.76999998
   17.10305595   72.46859741    4.90999985    2.76999998
   17.10611153   70.75530243    4.90999985    2.76999998
   17.10944557   72.67099762    4.90999985    2.75000000
   17.11277771   71.26339722    4.90999985    2.76999998
   17.11583328   71.73529816    4.90999985    2.78999996
   17.11916733   71.28510284    4.90999985    2.76999998
   17.12444496   71.28510284    4.90999985    2.76999998
   17.12861061   72.49819946    4.90999985    2.76999998
   17.13194466   71.02069855    4.90999985    2.76999998
   17.13500023   73.65149689    4.90999985    2.76999998
   17.13833237   71.17469788    4.90999985    2.76999998
   17.13944435   71.53800201    4.90999985    2.75000000
   17.14194489   70.78150177    4.90999985    2.76999998
   17.14527702   70.92890167    4.90999985    2.76999998
   17.14833260   75.47460175    4.90999985    2.76999998
   17.15166664   72.19159698    4.90999985    2.75000000
   17.15472221   71.53289795    4.90999985    2.76999998
   17.15805435   74.06719971    4.90999985    2.76999998
   17.16138840   72.93039703    4.90999985    2.75000000
   17.16444397   72.16079712    4.90999985    2.76999998
   17.16777802   72.25820160    4.90999985    2.76999998
   17.17111015   75.40370178    4.90999985    2.75000000
   17.17555428   75.40370178    4.90999985    2.76999998
   17.17972183   74.57969666    4.90999985    2.75000000
   17.18305397   73.60359955    4.90999985    2.75000000
   17.18638802   71.93430328    4.90999985    2.75000000
   17.18944359   71.20069885    4.90999985    2.75000000
   17.18999863   75.09320068    4.90999985    2.75000000
   17.19333267   72.22329712    4.90999985    2.75000000
   17.19638824   73.84649658    4.90999985    2.73000002
   17.19972038   71.39649963    4.90999985    2.75000000
   17.20277786   71.49299622    4.90999985    2.75000000
   17.20611191   71.33119965    4.90999985    2.76999998
   17.20944595   69.89530182    4.90999985    2.75000000
   17.21250153   74.83260345    4.90999985    2.69000006
   17.21583366   75.29949951    4.90999985    2.64000010
   17.21916771   72.39230347    4.90999985    2.55999994
   17.22222328   72.00689697    4.90999985    2.69000006
   17.22694588   72.00689697    4.90999985    2.71000004
   17.23083305   70.99340057    4.90999985    2.75000000
   17.23416710   72.52940369    4.90999985    2.75000000
   17.23750114   71.18309784    4.90999985    2.76999998
   17.23944473   71.23780060    4.90999985    2.75000000
   17.24111176   70.89630127    4.90999985    2.75000000
   17.24444389   71.79570007    4.90999985    2.76999998
   17.24749947   72.65730286    4.90999985    2.75000000
   17.25083351   71.44779968    4.90999985    2.76999998
   17.25416756   71.28060150    4.90999985    2.75000000
   17.25722313   71.47100067    4.90999985    2.76999998
   17.26055527   71.40049744    4.90999985    2.75000000
   17.26361084   71.70999908    4.90999985    2.75000000
   17.26694489   70.38919830    4.90999985    2.76999998
   17.27027702   71.58180237    4.90999985    2.75000000
   17.27333260   71.23709869    4.90999985    2.76999998
   17.27805519   71.23709869    4.90999985    2.76999998
   17.28222275   71.48300171    4.90999985    2.75000000
   17.28527641   71.67669678    4.90999985    2.75000000
   17.28861046   69.79550171    4.90999985    2.75000000
   17.28944397   69.98159790    4.90999985    2.75000000
   17.29222107   69.99310303    4.90999985    2.76999998
   17.29555511   70.44039917    4.90999985    2.75000000
   17.29861069   70.93869781    4.90999985    2.76999998
   17.30194283   69.42620087    4.90999985    2.75000000
   17.30527687   72.02100372    4.90999985    2.75000000
   17.30833244   71.22360229    4.90999985    2.76999998
   17.31166649   68.93659973    4.90999985    2.75000000
   17.31472206   69.82299805    4.90999985    2.76999998
   17.31805611   70.84030151    4.90999985    2.75000000
   17.32139015   70.21279907    4.90999985    2.75000000
   17.32444572   71.63169861    4.90999985    2.75000000
   17.32916832   71.63169861    4.90999985    2.76999998
   17.33333397   69.82620239    4.90999985    2.76999998
   17.33666801   71.13320160    4.90999985    2.75000000
   17.33972359   69.78939819    4.90999985    2.75000000
   17.34027863   72.66880035    4.90999985    2.76999998
   17.34333420   70.35089874    4.90999985    2.75000000
   17.34666824   70.03179932    4.90999985    2.75000000
   17.35000038   70.70680237    4.90999985    2.75000000
   17.35305595   71.13809967    4.90999985    2.75000000
   17.35639000   72.04290009    4.90999985    2.73000002
   17.35944557   72.01660156    4.90999985    2.73000002
   17.36277771   70.75409698    4.90999985    2.75000000
   17.36611176   71.72669983    4.90999985    2.75000000
   17.36916733   76.34600067    4.90999985    2.61999989
   17.37249947   76.95790100    4.90999985    2.55999994
   17.37583351   74.14129639    4.90999985    2.42000008
   17.38027763   74.14129639    4.90999985    2.23000002
   17.38444519   70.84500122    4.90999985    2.71000004
   17.38777733   72.43160248    4.90999985    2.75000000
   17.38972282   71.15529633    4.90999985    2.75000000
   17.39138794   72.29679871    4.90999985    2.75000000
   17.39444351   72.72989655    4.90999985    2.75000000
   17.39777756   71.84169769    4.90999985    2.75000000
   17.40111160   72.73449707    4.90999985    2.73000002
   17.40416718   72.91860199    4.90999985    2.75000000
   17.40749931   72.26260376    4.90999985    2.75000000
   17.41055489   71.16130066    4.90999985    2.75000000
   17.41388893   71.63890076    4.90999985    2.75000000
   17.41722107   71.80059814    4.90999985    2.75000000
   17.42027664   72.85030365    4.90999985    2.75000000
   17.42361069   72.45390320    4.90999985    2.75000000
   17.42694473   70.05899811    4.90999985    2.75000000
   17.43166542   70.05899811    4.90999985    2.75000000
   17.43583298   75.21630096    4.90999985    2.46000004
   17.43888855   73.06770325    4.90999985    2.55999994
   17.43972206   75.13960266    4.90999985    2.61999989
   17.44277763   72.05319977    4.90999985    2.44000006
   17.44583321   75.46910095    4.90999985    2.57999992
   17.44916534   71.87699890    4.90999985    2.67000008
   17.45250130   74.71620178    4.90999985    2.75000000
   17.45555687   73.12000275    4.90999985    2.75000000
   17.45888901   71.14649963    4.90999985    2.73000002
   17.46222305   72.67500305    4.90999985    2.75000000
   17.46527863   72.50460052    4.90999985    2.75000000
   17.46861076   73.72360229    4.90999985    2.75000000
   17.47166634   73.03579712    4.90999985    2.76999998
   17.47500038   72.91089630    4.90999985    2.75000000
   17.47833443   71.95480347    4.90999985    2.75000000
   17.48277855   71.95480347    4.90999985    2.73000002
   17.48694420   75.10639954    4.90999985    2.59999990
   17.48972321   73.89900208    4.90999985    2.64000010
   17.49055672   72.90190125    4.90999985    2.61999989
   17.49361229   70.45780182    4.90999985    2.73000002
   17.49694443   71.82920074    4.90999985    2.75000000
   17.50027847   74.20300293    4.90999985    2.73000002
   17.50333405   73.40550232    4.90999985    2.61999989
   17.50666618   73.41169739    4.90999985    2.73000002
   17.51000023   71.58899689    4.90999985    2.75000000
   17.51305580   73.47530365    4.90999985    2.71000004
   17.51638794   73.04750061    4.90999985    2.67000008
   17.51944351   74.11920166    4.90999985    2.71000004
   17.52277756   73.97889709    4.90999985    2.69000006
   17.52611160   74.54250336    4.90999985    2.59999990
   17.52916718   73.76969910    4.90999985    2.64000010
   17.53388786   73.76969910    4.90999985    2.69000006
   17.53805542   77.00219727    4.90999985    2.61999989
   17.53972244   70.79820251    4.90999985    2.57999992
   17.54166603   75.32160187    4.90999985    2.64000010
   17.54472160   72.36620331    4.90999985    2.57999992
   17.54805565   74.60620117    4.90999985    2.61999989
   17.55138779   75.73339844    4.90999985    2.67000008
   17.55444336   75.15339661    4.90999985    2.76999998
   17.55777740   74.31189728    4.90999985    2.71000004
   17.56110954   80.07309723    4.90999985    2.48000002
   17.56416512   72.57710266    4.90999985    2.46000004
   17.56750107   74.83860016    4.90999985    2.66000009
   17.57055664   77.09269714    4.90999985    2.48000002
   17.57389069   79.32740021    4.90999985    2.39000010
   17.57722282  137.19099426    4.90999985    2.09999990
   17.58027840  101.75000000    4.90999985    1.86000001
   17.58500099  101.75000000    4.90999985    1.98000002
   17.58916664   75.43979645    4.90999985    2.36999989
   17.58972359   75.30359650    4.90999985    2.42000008
   17.59277916   80.28749847    4.90999985    2.48000002
   17.59611130   76.64050293    4.90999985    2.51999998
   17.59916687   75.39980316    4.90999985    2.55999994
   17.60250092   73.05889893    4.90999985    2.61999989
   17.60583305   77.96649933    4.90999985    2.71000004
   17.60888863   76.09919739    4.90999985    2.59999990
   17.61222267   78.67050171    4.90999985    2.48000002
   17.61527824   77.72969818    4.90999985    2.26999998
   17.61861038   79.30770111    4.90999985    2.28999996
   17.62194443   76.82710266    4.90999985    2.40000010
   17.62500000   76.19360352    4.90999985    2.55999994
   17.62833405   81.92140198    4.90999985    2.36999989
   17.63166618   99.97540283    4.90999985    2.23000002
   17.63638878   99.97540283    4.90999985    1.76999998
   17.64055634   73.40160370    4.90999985    2.09999990
   17.64361191   74.93029785    4.90999985    2.64000010
   17.64694405   91.76789856    4.90999985    2.61999989
   17.64999962   73.09950256    4.90999985    2.46000004
   17.65333366   77.14659882    4.90999985    2.69000006
   17.65666580   79.51599884    4.90999985    2.39000010
   17.65972137   76.61419678    4.90999985    2.48000002
   17.66305542  127.82800293    4.90999985    2.66000009
   17.66638756   73.53569794    4.90999985    2.73000002
   17.66944313   73.27469635    4.90999985    2.73000002
   17.67277718   71.53070068    4.90999985    2.75000000
   17.67583275   71.80339813    4.90999985    2.75000000
   17.67916679   71.98300171    4.90999985    2.75000000
   17.68249893   72.89070129    4.90999985    2.73000002
   17.68750000   72.89070129    4.90999985    2.73000002
   17.69166565   76.74310303    4.90999985    2.73000002
   17.69472122   72.16320038    4.90999985    2.75000000
   17.69805527   71.43609619    4.90999985    2.75000000
   17.70138931   72.90979767    4.90999985    2.75000000
   17.70444489   71.99230194    4.90999985    2.75000000
   17.70777893   73.07080078    4.90999985    2.75000000
   17.71111107   74.12090302    4.90999985    2.75000000
   17.71416664   72.97010040    4.90999985    2.73000002
   17.71750069   72.86920166    4.90999985    2.66000009
   17.72055626   71.97769928    4.90999985    2.66000009
   17.72389030   72.40679932    4.90999985    2.71000004
   17.72722244   75.01679993    4.90999985    2.73000002
   17.73027802   73.10359955    4.90999985    2.73000002
   17.73361206   78.00720215    4.90999985    2.50000000
   17.73861122   78.00720215    4.90999985    2.55999994
   17.74277878   73.86769867    4.90999985    2.71000004
   17.74611092   71.65930176    4.90999985    2.73000002
   17.74916649   71.39959717    4.90999985    2.73000002
   17.75250053   73.40260315    4.90999985    2.69000006
   17.75583267   74.90080261    4.90999985    2.71000004
   17.75888824   72.61239624    4.90999985    2.59999990
   17.76222229   71.46920013    4.90999985    2.67000008
   17.76527786   73.27850342    4.90999985    2.71000004
   17.76861000   71.55560303    4.90999985    2.73000002
   17.77194405   73.38970184    4.90999985    2.73000002
   17.77499962   70.74479675    4.90999985    2.75000000
   17.77833366   74.10549927    4.90999985    2.73000002
   17.78166580   71.74549866    4.90999985    2.73000002
   17.78472137   76.20839691    4.90999985    2.73000002
   17.78972244   76.20839691    4.90999985    2.73000002
   17.79388809   71.00559998    4.90999985    2.73000002
   17.79722214   72.77079773    4.90999985    2.75000000
   17.80055428   72.93129730    4.90999985    2.75000000
   17.80360985   72.09529877    4.90999985    2.75000000
   17.80694389   73.34919739    4.90999985    2.73000002
   17.80999947   73.00379944    4.90999985    2.75000000
   17.81333351   72.66030121    4.90999985    2.75000000
   17.81666756   73.33380127    4.90999985    2.73000002
   17.81972313   72.33159637    4.90999985    2.73000002
   17.82305717   72.82089996    4.90999985    2.73000002
   17.82638931   72.55940247    4.90999985    2.75000000
   17.82944489   72.52030182    4.90999985    2.73000002
   17.83277893   72.26709747    4.90999985    2.75000000
   17.83583450   72.16139984    4.90999985    2.75000000
   17.84111214   72.16139984    4.90999985    2.73000002
   17.84527779   72.25630188    4.90999985    2.75000000
   17.84833336   72.85130310    4.90999985    2.75000000
   17.85166740   72.39720154    4.90999985    2.75000000
   17.85499954   72.32450104    4.90999985    2.73000002
   17.85805511   73.95629883    4.90999985    2.75000000
   17.86138916   73.94029999    4.90999985    2.75000000
   17.86472321   71.95970154    4.90999985    2.75000000
   17.86777878   71.45819855    4.90999985    2.73000002
   17.87111092   71.11150360    4.90999985    2.75000000
   17.87416649   70.89289856    4.90999985    2.75000000
   17.87750053   71.45700073    4.90999985    2.73000002
   17.88083267   71.73619843    4.90999985    2.75000000
   17.88388824   73.27410126    4.90999985    2.73000002
   17.88722229   71.31590271    4.90999985    2.73000002
   17.89222145   71.31590271    4.90999985    2.73000002
   17.89638901   72.10359955    4.90999985    2.73000002
   17.89944458   72.57360077    4.90999985    2.75000000
   17.90277672   71.48509979    4.90999985    2.73000002
   17.90611076   71.65380096    4.90999985    2.75000000
   17.90916634   75.64980316    4.90999985    2.75000000
   17.91250038   72.59889984    4.90999985    2.75000000
   17.91583252   73.09519958    4.90999985    2.67000008
   17.91888809   72.29509735    4.90999985    2.61999989
   17.92222214   73.42990112    4.90999985    2.57999992
   17.92527771   73.91190338    4.90999985    2.73000002
   17.92860985   71.83650208    4.90999985    2.75000000
   17.93194389   72.76080322    4.90999985    2.73000002
   17.93527603   73.71690369    4.90999985    2.75000000
   17.93833160   71.10669708    4.90999985    2.75000000
   17.94333267   71.10669708    4.90999985    2.75000000
   17.94749832   71.02619934    4.90999985    2.75000000
   17.95083427   71.05850220    4.90999985    2.73000002
   17.95388985   71.06770325    4.90999985    2.75000000
   17.95722389   70.26280212    4.90999985    2.73000002
   17.96055603   71.36730194    4.90999985    2.75000000
   17.96361160   71.30090332    4.90999985    2.73000002
   17.96694565   70.39199829    4.90999985    2.73000002
   17.97000122   71.48919678    4.90999985    2.73000002
   17.97333336   71.21080017    4.90999985    2.73000002
   17.97666740   70.60590363    4.90999985    2.73000002
   17.97972298   72.50109863    4.90999985    2.67000008
   17.98305511   73.26740265    4.90999985    2.67000008
   17.98638916   71.19439697    4.90999985    2.69000006
   17.98944473   71.65560150    4.90999985    2.73000002
   17.99444389   71.65560150    4.90999985    2.73000002
   17.99861145   70.26149750    4.90999985    2.73000002
   18.00194359   71.08229828    4.90999985    2.73000002
   18.00527763   70.71880341    4.90999985    2.73000002
   18.00833321   73.84030151    4.90999985    2.73000002
   18.01166725   70.86370087    4.90999985    2.75000000
   18.01499939   75.87779999    4.90999985    2.75000000
   18.01805496   76.87570190    4.90999985    2.71000004
   18.02138901   76.28790283    4.90999985    2.15000010
   18.02444458  105.55500031    4.90999985    2.25000000
   18.02777672   76.12830353    4.90999985    2.50000000
   18.03111076   73.81400299    4.90999985    2.59999990
   18.03416634   73.67759705    4.90999985    2.57999992
   18.03750038   71.86009979    4.90999985    2.71000004
   18.04083252   71.98229980    4.90999985    2.71000004
   18.04583359   71.98229980    4.90999985    2.64000010
   18.04999924  118.73999786    4.90999985    2.11999989
   18.05305481  137.54800415    4.90999985    1.88000000
   18.05638885   84.83989716    4.90999985    1.71000004
   18.05944443   76.36209869    4.90999985    2.13000011
   18.06277657   76.47930145    4.90999985    2.64000010
   18.06611061   73.51069641    4.90999985    2.55999994
   18.06916809   76.23320007    4.90999985    2.55999994
   18.07250023   73.22750092    4.90999985    2.59999990
   18.07583427   74.05719757    4.90999985    2.57999992
   18.07888985   74.34420013    4.90999985    2.53999996
   18.08222389   78.68900299    4.90999985    2.51999998
   18.08527756   75.41649628    4.90999985    2.57999992
   18.08861160   74.98410034    4.90999985    2.46000004
   18.11027908   74.98410034    4.90999985    2.71000004
   18.11444473   75.60430145    4.90999985    2.67000008
   18.11750031   71.67510223    4.90999985    2.71000004
   18.12083435   72.07689667    4.90999985    2.73000002
   18.12416649   72.49530029    4.90999985    2.67000008
   18.12722206   75.40080261    4.90999985    2.71000004
   18.13055611   72.61199951    4.90999985    2.69000006
   18.13361168   72.86419678    4.90999985    2.69000006
   18.13694382   91.40619659    4.90999985    2.57999992
   18.14027786   71.33589935    4.90999985    2.73000002
   18.14333344   75.99960327    4.90999985    2.67000008
   18.14666748   73.70330048    4.90999985    2.26999998
   18.14999962  107.92299652    4.90999985    2.71000004
   18.15305519   72.90170288    4.90999985    2.64000010
   18.15638924   71.86889648    4.90999985    2.73000002
   18.15777779   72.50270081    4.90999985    2.73000002
   18.16194344   72.50270081    4.90999985    2.73000002
   18.16611099   76.86150360    4.90999985    2.69000006
   18.16916656   78.80709839    4.90999985    2.51999998
   18.17249870   76.12680054    4.90999985    2.19000006
   18.17555428   76.21520233    4.90999985    2.57999992
   18.17888832   71.27690125    4.90999985    2.64000010
   18.18222237   76.04270172    4.90999985    2.71000004
   18.18527603   72.23999786    4.90999985    2.67000008
   18.18861008   72.23909760    4.90999985    2.73000002
   18.19194412   74.94339752    4.90999985    2.66000009
   18.19499969   72.96279907    4.90999985    2.69000006
   18.19833183   72.82949829    4.90999985    2.69000006
   18.20166779   76.02819824    4.90999985    2.66000009
   18.20472336   75.82779694    4.90999985    2.48000002
   18.20777893   72.92179871    4.90999985    2.55999994
   18.20833397   72.86879730    4.90999985    2.50000000
   18.21305656   72.86879730    4.90999985    2.69000006
   18.21722221   73.85140228    4.90999985    2.71000004
   18.22027779   72.12650299    4.90999985    2.67000008
   18.22361183   71.95210266    4.90999985    2.71000004
   18.22694588   72.56150055    4.90999985    2.67000008
   18.23000145   72.29669952    4.90999985    2.66000009
   18.23333359   75.37090302    4.90999985    2.64000010
   18.23666763   72.60269928    4.90999985    2.67000008
   18.23972321   72.45890045    4.90999985    2.73000002
   18.24305534   73.04509735    4.90999985    2.71000004
   18.24611092   70.43900299    4.90999985    2.71000004
   18.24944496   72.26029968    4.90999985    2.71000004
   18.25277710   69.65760040    4.90999985    2.73000002
   18.25583267   72.20079803    4.90999985    2.73000002
   18.25777817   74.05429840    4.90999985    2.71000004
   18.25944519   73.56420135    4.90999985    2.71000004
   18.26416588   73.56420135    4.90999985    2.66000009
   18.26833344   74.88809967    4.90999985    2.66000009
   18.27166557   70.62239838    4.90999985    2.69000006
   18.27472115   73.06549835    4.90999985    2.69000006
   18.27805519   73.11969757    4.90999985    2.69000006
   18.28138924   72.20800018    4.90999985    2.69000006
   18.28444481   73.39369965    4.90999985    2.71000004
   18.28777695   74.07510376    4.90999985    2.71000004
   18.29083252   73.67289734    4.90999985    2.66000009
   18.29416656   72.70970154    4.90999985    2.53999996
   18.29749870   70.58029938    4.90999985    2.67000008
   18.30055428   72.11699677    4.90999985    2.71000004
   18.30388832   73.40480042    4.90999985    2.69000006
   18.30722237   75.38390350    4.90999985    2.71000004
   18.30777740   71.61389923    4.90999985    2.71000004
   18.31055450   70.68029785    4.90999985    2.71000004
   18.31527710   70.68029785    4.90999985    2.67000008
   18.31944466   73.40809631    4.90999985    2.66000009
   18.32277870   73.43129730    4.90999985    2.59999990
   18.32611275   75.38659668    4.90999985    2.61999989
   18.32916832   72.97989655    4.90999985    2.50000000
   18.33250046   76.53829956    4.90999985    2.57999992
   18.33555603   75.81559753    4.90999985    2.57999992
   18.33889008   77.58429718    4.90999985    2.48000002
   18.34222221   77.56559753    4.90999985    2.42000008
   18.34527779   75.80789948    4.90999985    2.51999998
   18.34861183   78.39119720    4.90999985    2.46000004
   18.35194397   95.06230164    4.90999985    2.25000000
   18.35499954   86.13710022    4.90999985    1.96000004
   18.35777855   74.75440216    4.90999985    2.40000010
   18.35861206   76.55020142    4.90999985    2.46000004
   18.36194420   76.77040100    4.90999985    2.51999998
   18.36666679   76.77040100    4.90999985    2.30999994
   18.37083435  109.21099854    4.90999985    2.25000000
   18.37388992   91.28420258    4.90999985    1.78999996
   18.37722206   78.05729675    4.90999985    1.96000004
   18.38027763   76.45690155    4.90999985    2.32999992
   18.38361168   78.49929810    4.90999985    2.42000008
   18.38694382   97.30760193    4.90999985    2.28999996
   18.38999939   83.79910278    4.90999985    2.01999998
   18.39333344   80.43509674    4.90999985    2.36999989
   18.39666748   75.43910217    4.90999985    2.55999994
   18.39972115   78.66179657    4.90999985    2.36999989
   18.40305519   83.64569855    4.90999985    2.30999994
   18.40611076   91.62580109    4.90999985    2.23000002
   18.40777779   84.56130219    4.90999985    2.17000008
   18.40972137   93.10939789    4.90999985    2.07999992
   18.41305542   86.18789673    4.90999985    2.03999996
   18.41777802   86.18789673    4.90999985    2.09999990
   18.42194366   92.04869843    4.90999985    2.11999989
   18.42499924   76.57150269    4.90999985    1.78999996
   18.42833328   99.68810272    4.90999985    1.86000001
   18.43166542  102.55400085    4.90999985    2.05999994
   18.43472099   78.27040100    4.90999985    2.03999996
   18.43805504   78.78099823    4.90999985    2.26999998
   18.44138718   72.47419739    4.90999985    2.40000010
   18.44444275   71.76110077    4.90999985    2.59999990
   18.44777679   74.42549896    4.90999985    2.64000010
   18.45083427   71.51670074    4.90999985    2.66000009
   18.45416832   73.65519714    4.90999985    2.67000008
   18.45750046   75.03209686    4.90999985    2.59999990
   18.45805550   75.56819916    4.90999985    2.55999994
   18.46111107   79.34989929    4.90999985    2.28999996
   18.46444511   82.03530121    4.90999985    2.19000006
   18.46888924   82.03530121    4.90999985    2.42000008
   18.47305679   75.93710327    4.90999985    2.40000010
   18.47638893   79.17120361    4.90999985    2.39000010
   18.47944450  112.29499817    4.90999985    1.88000000
   18.48277855   79.20300293    4.90999985    1.83000004
   18.48611069   75.79409790    4.90999985    2.53999996
   18.48916626  122.12699890    4.90999985    2.67000008
   18.49250031   80.65299988    4.90999985    1.14999998
   18.49555588   73.30970001    4.90999985    2.67000008
   18.49888992   75.87830353    4.90999985    2.66000009
   18.50222206   75.48840332    4.90999985    2.46000004
   18.50527763   76.80870056    4.90999985    2.36999989
   18.50805473   77.67109680    4.90999985    2.44000006
   18.50888824   77.59570313    4.90999985    2.39000010
   18.51222229   76.32409668    4.90999985    2.50000000
   18.51555634   75.67539978    4.90999985    2.57999992
   18.52000046   75.67539978    4.90999985    2.55999994
   18.52416611   75.61969757    4.90999985    2.53999996
   18.52750015   75.26000214    4.90999985    2.42000008
   18.53083229   73.24909973    4.90999985    2.51999998
   18.53388786   73.63140106    4.90999985    2.48000002
   18.53722191   71.70339966    4.90999985    2.66000009
   18.54027748   76.49449921    4.90999985    2.66000009
   18.54361153   73.17469788    4.90999985    2.66000009
   18.54694366   72.40499878    4.90999985    2.64000010
   18.54999924   73.24780273    4.90999985    2.69000006
   18.55333328   -1.00000000    4.90999985    1.26999998
   18.55666542   -1.00000000    4.90999985    1.46000004
   18.55999947   -1.00000000    4.90999985    0.41999999
   18.56333351   -1.00000000    4.90999985    0.76999998
   18.56638718   -1.00000000    4.90999985    2.98000002
   18.57139015   -1.00000000    4.90999985    1.13000000
   18.57527924   74.30059814    4.90999985    2.76999998
   18.57861137   71.72399902    4.90999985    2.75000000
   18.58194542   73.21710205    4.90999985    2.71000004
   18.58500099   72.07949829    4.90999985    2.71000004
   18.58833313   73.20570374    4.90999985    2.73000002
   18.59166718   74.48380280    4.90999985    2.71000004
   18.59472275   72.53029633    4.90999985    2.71000004
   18.59805679   77.10199738    4.90999985    2.71000004
   18.60111237   74.64019775    4.90999985    2.69000006
   18.60444450   73.09339905    4.90999985    2.69000006
   18.60777855   78.40560150    4.90999985    2.67000008
   18.60833359   71.82530212    4.90999985    2.67000008
   18.61138916   72.75789642    4.90999985    2.71000004
   18.61472321   74.17530060    4.90999985    2.69000006
   18.61805534   76.21410370    4.90999985    2.69000006
   18.62249947   76.21410370    4.90999985    2.67000008
   18.62666702   73.53759766    4.90999985    2.69000006
   18.62972260   76.39099884    4.90999985    2.71000004
   18.63305473   73.43000031    4.90999985    2.69000006
   18.63638878   72.71730042    4.90999985    2.71000004
   18.63944435   74.07309723    4.90999985    2.71000004
   18.64277840   77.56109619    4.90999985    2.67000008
   18.64583397   74.51080322    4.90999985    2.71000004
   18.64916611   71.32479858    4.90999985    2.71000004
   18.65250015   71.67440033    4.90999985    2.69000006
   18.65555573   72.58370209    4.90999985    2.69000006
   18.65833282   72.55349731    4.90999985    2.67000008
   18.65916634   71.45739746    4.90999985    2.69000006
   18.66250038   73.92630005    4.90999985    2.71000004
   18.66583252   72.25509644    4.90999985    2.71000004
   18.66888809   71.46540070    4.90999985    2.71000004
   18.67361069   71.46540070    4.90999985    2.69000006
   18.67777634   74.19750214    4.90999985    2.71000004
   18.68111038   76.44129944    4.90999985    2.71000004
   18.68416595   73.79879761    4.90999985    2.71000004
   18.68750000   75.33460236    4.90999985    2.71000004
   18.69055557   74.86759949    4.90999985    2.59999990
   18.69388771   75.25029755    4.90999985    2.64000010
   18.69722176   75.63200378    4.90999985    2.48000002
   18.70027924   81.77610016    4.90999985    2.46000004
   18.70361137  104.42800140    4.90999985    2.26999998
   18.70694542   84.50910187    4.90999985    2.09999990
   18.70833397   88.50099945    4.90999985    2.28999996
   18.71027946   90.15229797    4.90999985    2.01999998
   18.71361160   92.41560364    4.90999985    2.07999992
   18.71694565   79.19940186    4.90999985    2.17000008
   18.72000122   73.90180206    4.90999985    2.48000002
   18.72472191   73.90180206    4.90999985    2.66000009
   18.72888947   72.24469757    4.90999985    2.66000009
   18.73222351   75.38279724    4.90999985    2.67000008
   18.73527718   74.81819916    4.90999985    2.64000010
   18.73861122   76.00749969    4.90999985    2.64000010
   18.74194527  177.52099609    4.90999985    2.25000000
   18.74500084   -1.00000000    4.90999985    0.15000001
   18.74833298   -1.00000000    4.90999985    0.50000000
   18.75194359   -1.00000000    4.90999985    0.52999997
   18.75499916   -1.00000000    4.90999985    0.40000001
   18.75833321   75.49629974    4.90999985    1.78999996
   18.75888824   75.71510315    4.90999985    1.78999996
   18.76194382   75.66979980    4.90999985    2.59999990
   18.76527786   72.81580353    4.90999985    2.66000009
   18.76861000   72.17060089    4.90999985    2.67000008
   18.77166557   72.14689636    4.90999985    2.69000006
   18.77611160   72.14689636    4.90999985    2.71000004
   18.78027725   98.47399902    4.90999985    2.25000000
   18.78333282   73.84290314    4.90999985    2.76999998
   18.78666687   73.52709961    4.90999985    2.71000004
   18.78999901   74.80010223    4.90999985    2.71000004
   18.79305458   71.56259918    4.90999985    2.69000006
   18.79638863   73.29579926    4.90999985    2.69000006
   18.79972076   73.30079651    4.90999985    2.67000008
   18.80277634   76.19940186    4.90999985    2.00000000
   18.80611038   73.75289917    4.90999985    2.59999990
   18.80833244   73.44120026    4.90999985    2.61999989
   18.80972099   74.95939636    4.90999985    2.67000008
   18.81305504   71.67379761    4.90999985    2.67000008
   18.81611061   73.57389832    4.90999985    2.67000008
   18.81944466   76.59999847    4.90999985    2.64000010
   18.82277870   80.17960358    4.90999985    2.61999989
   18.82722282   80.17960358    4.90999985    2.26999998
   18.83139038   78.79930115    4.90999985    2.59999990
   18.83472252   86.41570282    4.90999985    2.32999992
   18.83777809   74.29000092    4.90999985    2.40000010
   18.84111214   77.55490112    4.90999985    2.44000006
   18.84444427   80.62560272    4.90999985    2.30999994
   18.84749985  120.32399750    4.90999985    2.09999990
   18.85083389   88.29080200    4.90999985    1.86000001
   18.85388947  159.43400574    4.90999985    2.00000000
   18.85722351  114.51899719    4.90999985    1.91999996
   18.85833359  138.60899353    4.90999985    1.94000006
   18.86083412   -1.00000000    4.90999985    1.66999996
   18.86416626   94.68759918    4.90999985    1.60000002
   18.86722183   91.77510071    4.90999985    1.33000004
   18.87055588   82.54579926    4.90999985    2.34999990
   18.87388992   82.06169891    4.90999985    2.26999998
   18.87833405   82.06169891    4.90999985    2.26999998
   18.88249969  152.85299683    4.90999985    1.80999994
   18.88583374   -1.00000000    4.90999985    1.71000004
   18.88916588   -1.00000000    4.90999985    1.44000006
   18.89222145   -1.00000000    4.90999985    0.94000000
   18.89555550   -1.00000000    4.90999985    0.89999998
   18.89861107   -1.00000000    4.90999985    0.79000002
   18.90194321   -1.00000000    4.90999985    1.16999996
   18.90527725   -1.00000000    4.90999985    1.39999998
   18.90888786   -1.00000000    4.90999985    1.41999996
   18.91194344  142.09300232    4.90999985    1.60000002
   18.91527748  100.63400269    4.90999985    1.89999998
   18.91860962   90.06990051    4.90999985    1.96000004
   18.92166519   80.80259705    4.90999985    2.09999990
   18.92499924   76.75299835    4.90999985    2.34999990
   18.92972183   76.75299835    4.90999985    2.46000004
   18.93388748   77.01149750    4.90999985    2.50000000
   18.93694305   76.24269867    4.90999985    2.55999994
   18.94027710   76.58650208    4.90999985    2.57999992
   18.94333267   72.71910095    4.90999985    2.55999994
   18.94666672   73.64430237    4.90999985    2.59999990
   18.95000076   76.72699738    4.90999985    2.59999990
   18.95305634   80.42810059    4.90999985    2.39000010
   18.95639038   87.76080322    4.90999985    2.21000004
   18.95861244   90.80460358    4.90999985    2.15000010
   18.96000099  145.09100342    4.90999985    2.09999990
   18.96333504   89.75140381    4.90999985    1.85000002
   18.96638870   89.07340240    4.90999985    2.11999989
   18.96972275  133.08299255    4.90999985    2.07999992
   18.97305679   93.64279938    4.90999985    1.76999998
   18.97611237  146.30799866    4.90999985    1.69000006
   18.98083305  146.30799866    4.90999985    2.09999990
   18.98500061   77.09919739    4.90999985    2.36999989
   18.98805618   79.49530029    4.90999985    2.48000002
   18.99138832   88.31020355    4.90999985    2.40000010
   18.99472237   87.52760315    4.90999985    2.09999990
   18.99777794   96.70709991    4.90999985    2.32999992
   19.00111198  139.86300659    4.90999985    1.96000004
   19.00444412  131.91099548    4.90999985    1.89999998
   19.00749969   82.34480286    4.90999985    1.88000000
   19.00861168   83.17250061    4.90999985    2.01999998
   19.01111031   79.99220276    4.90999985    2.23000002
   19.01444435   75.76069641    4.90999985    2.50000000
   19.01749992   73.18460083    4.90999985    2.57999992
   19.02083397   75.72350311    4.90999985    2.61999989
   19.02416611   73.68309784    4.90999985    2.64000010
   19.02722168   81.48750305    4.90999985    2.59999990
   19.03194427   81.48750305    4.90999985    2.17000008
   19.03610992   93.06199646    4.90999985    2.44000006
   19.03944397   74.84390259    4.90999985    2.57999992
   19.04249954   71.66790009    4.90999985    2.55999994
   19.04583359   99.75839996    4.90999985    2.48000002
   19.04916573   88.51740265    4.90999985    2.44000006
   19.05222130   70.25350189    4.90999985    2.57999992
   19.05555534   75.90529633    4.90999985    2.73000002
   19.05861092   75.85990143    4.90999985    2.69000006
   19.05916595   71.98490143    4.90999985    2.67000008
   19.06250000   71.95510101    4.90999985    2.73000002
   19.06555557   79.33940125    4.90999985    2.69000006
   19.06888962  108.40100098    4.90999985    2.55999994
   19.07222366  124.04000092    4.90999985    2.05999994
   19.07527924  112.20999908    4.90999985    1.30999994
   19.07861137  110.26499939    4.90999985    1.60000002
   19.08305550  110.26499939    4.90999985    2.64000010
   19.08722305   83.08830261    4.90999985    1.34000003
   19.09055710   77.14160156    4.90999985    2.42000008
   19.09388924   82.44889832    4.90999985    2.28999996
   19.09694481   73.95570374    4.90999985    2.51999998
   19.10027885   74.53150177    4.90999985    2.48000002
   19.10333443   73.68520355    4.90999985    2.66000009
   19.10666656   75.24040222    4.90999985    2.71000004
   19.12388992   73.19290161    4.90999985    2.67000008
   19.12638855   74.79250336    4.90999985    2.66000009
   19.12972260   73.03980255    4.90999985    2.59999990
   19.13444519   73.03980255    4.90999985    2.51999998
   19.13861084   78.40000153    4.90999985    2.40000010
   19.14194489   -1.00000000    4.90999985    2.50000000
   19.14527702   -1.00000000    4.90999985    0.63000000
   19.14833260   74.86219788    4.90999985    0.79000002
   19.15166664   76.83309937    4.90999985    2.57999992
   19.15472221   82.19029999    4.90999985    2.39000010
   19.15805435   78.93399811    4.90999985    2.30999994
   19.16138840   80.03379822    4.90999985    2.07999992
   19.16444397   76.61060333    4.90999985    2.48000002
   19.16777802   75.56880188    4.90999985    2.59999990
   19.17111015  129.21800232    4.90999985    2.11999989
   19.17361069   77.10169983    4.90999985    1.78999996
   19.17472076   73.37729645    4.90999985    2.23000002
   19.17805481   72.01740265    4.90999985    2.67000008
   19.18111038   72.21269989    4.90999985    2.64000010
   19.18583298   72.21269989    4.90999985    2.61999989
   19.18999863   72.83509827    4.90999985    2.61999989
   19.19305420   79.20570374    4.90999985    2.59999990
   19.19638824   73.51200104    4.90999985    2.50000000
   19.19944382   78.63379669    4.90999985    2.50000000
   19.20277786   77.80159760    4.90999985    2.46000004
   19.20611191   73.84200287    4.90999985    2.51999998
   19.20916748   74.22850037    4.90999985    2.42000008
   19.21250153   75.82050323    4.90999985    2.48000002
   19.21583366   73.50050354    4.90999985    2.48000002
   19.21888924   72.80290222    4.90999985    2.67000008
   19.22222328   72.92639923    4.90999985    2.66000009
   19.22361183   71.74120331    4.90999985    2.64000010
   19.22583389   72.84470367    4.90999985    2.64000010
   19.22916794   71.78820038    4.90999985    2.67000008
   19.23222351   74.75669861    4.90999985    2.67000008
   19.23694420   74.75669861    4.90999985    2.57999992
   19.24111176   79.36540222    4.90999985    2.61999989
   19.24416733   73.26349640    4.90999985    2.55999994
   19.24749947   73.17030334    4.90999985    2.67000008
   19.25083351   71.58550262    4.90999985    2.67000008
   19.25388908   73.73380280    4.90999985    2.67000008
   19.25722313   70.31559753    4.90999985    2.67000008
   19.26055527   72.87290192    4.90999985    2.67000008
   19.26361084   74.06549835    4.90999985    2.67000008
   19.26694489   70.82620239    4.90999985    2.64000010
   19.27000046   71.65170288    4.90999985    2.66000009
   19.27333260   72.07299805    4.90999985    2.67000008
   19.27388954   71.91989899    4.90999985    2.67000008
   19.27722168   70.58470154    4.90999985    2.66000009
   19.28027725   74.46700287    4.90999985    2.67000008
   19.28361130   71.87750244    4.90999985    2.64000010
   19.28805542   71.87750244    4.90999985    2.66000009
   19.29222107   73.32730103    4.90999985    2.61999989
   19.29555511   73.75789642    4.90999985    2.64000010
   19.29861069   73.24790192    4.90999985    2.64000010
   19.30194283   72.44049835    4.90999985    2.61999989
   19.30527687   73.73780060    4.90999985    2.64000010
   19.30861092   74.38259888    4.90999985    2.61999989
   19.31166649   74.28260040    4.90999985    2.61999989
   19.31499863   75.77510071    4.90999985    2.57999992
   19.31833458   74.50789642    4.90999985    2.57999992
   19.32139015   72.42359924    4.90999985    2.61999989
   19.32389069   73.10060120    4.90999985    2.57999992
   19.32527924   75.07430267    4.90999985    2.46000004
   19.32833481   73.84670258    4.90999985    2.28999996
   19.33166695   71.03150177    4.90999985    2.71000004
   19.33500099   73.15599823    4.90999985    2.66000009
   19.33916664   73.15599823    4.90999985    2.64000010
   19.34333420   73.80319977    4.90999985    2.61999989
   19.34666824   72.05039978    4.90999985    2.61999989
   19.34972191   71.66600037    4.90999985    2.66000009
   19.35305595   74.17189789    4.90999985    2.61999989
   19.35639000   71.12180328    4.90999985    2.64000010
   19.35944557   71.93250275    4.90999985    2.61999989
   19.36277771   71.98660278    4.90999985    2.64000010
   19.36611176   71.87049866    4.90999985    2.66000009
   19.36916733   72.27700043    4.90999985    2.64000010
   19.37249947   72.12940216    4.90999985    2.61999989
   19.37388992   74.20649719    4.90999985    2.59999990
   19.37611198   72.79170227    4.90999985    2.61999989
   19.37916756   72.30400085    4.90999985    2.61999989
   19.38249969   72.14170074    4.90999985    2.66000009
   19.38583374   72.50920105    4.90999985    2.64000010
   19.39055634   72.50920105    4.90999985    2.64000010
   19.39444351   72.99579620    4.90999985    2.59999990
   19.39777756   72.91339874    4.90999985    2.61999989
   19.40111160   72.56610107    4.90999985    2.53999996
   19.40416718   72.79709625    4.90999985    2.53999996
   19.40749931   79.39129639    4.90999985    2.57999992
   19.41083336   82.15920258    4.90999985    2.50000000
   19.41388893   77.43350220    4.90999985    2.30999994
   19.41722107   74.38729858    4.90999985    2.40000010
   19.42027664   75.37779999    4.90999985    2.51999998
   19.42361069   78.66359711    4.90999985    2.40000010
   19.42416573   74.21980286    4.90999985    2.40000010
   19.42749977   73.80210114    4.90999985    2.53999996
   19.43055534   78.13819885    4.90999985    2.51999998
   19.43388748   83.92829895    4.90999985    2.32999992
   19.43722153   -1.00000000    4.90999985    1.14999998
   19.44166565   -1.00000000    4.90999985    1.28999996
   19.44583321   -1.00000000    4.90999985    1.30999994
   19.44888878   -1.00000000    4.90999985    0.81999999
   19.45222282  105.91000366    4.90999985    1.46000004
   19.45555687   -1.00000000    4.90999985    1.51999998
   19.45888901   -1.00000000    4.90999985    0.81999999
   19.46194458   -1.00000000    4.90999985    0.95999998
   19.46527863  103.17500305    4.90999985    0.88000000
   19.46861076   -1.00000000    4.90999985    1.11000001
   19.47166634   -1.00000000    4.90999985    2.03999996
   19.47527885   -1.00000000    4.90999985    1.11000001
   19.47833443   -1.00000000    4.90999985    1.73000002
   19.48166656   -1.00000000    4.90999985    1.51999998
   19.48500061   -1.00000000    4.90999985    0.86000001
   19.48805618   -1.00000000    4.90999985    1.38000000
   19.49694443   -1.00000000    4.90999985    0.52999997
   19.50000000   -1.00000000    4.90999985    0.73000002
   19.50333405   -1.00000000    4.90999985    1.03999996
   19.50666618   -1.00000000    4.90999985    0.67000002
   19.50972176   -1.00000000    4.90999985    0.92000002
   19.51305580   -1.00000000    4.90999985    1.14999998
   19.51638794   -1.00000000    4.90999985    1.03999996
   19.51944351   -1.00000000    4.90999985    1.60000002
   19.52277756   -1.00000000    4.90999985    1.46000004
   19.52638817   -1.00000000    4.90999985    1.46000004
   19.52944374   -1.00000000    4.90999985    0.95999998
   19.53277779   -1.00000000    4.90999985    0.81999999
   19.53610992   -1.00000000    4.90999985    1.76999998
   19.53916550   -1.00000000    4.90999985    1.33000004
   19.54388809   -1.00000000    4.90999985    1.30999994
   19.54805565   -1.00000000    4.90999985    1.09000003
   19.55138779   -1.00000000    4.90999985    1.14999998
   19.55444336   -1.00000000    4.90999985    1.19000006
   19.55777740   -1.00000000    4.90999985    1.44000006
   19.56110954   -1.00000000    4.90999985    1.33000004
   19.56416512   -1.00000000    4.90999985    0.92000002
   19.56750107   -1.00000000    4.90999985    1.61000001
   19.57083511   85.06819916    4.90999985    1.60000002
   19.57389069   -1.00000000    4.90999985    2.30999994
   19.57750130   -1.00000000    4.90999985    1.33000004
   19.58083344  146.11799622    4.90999985    1.16999996
   19.58416748   78.87480164    4.90999985    1.34000003
   19.58722305  101.18099976    4.90999985    2.15000010
   19.59055710   -1.00000000    4.90999985    1.69000006
   19.59916687   -1.00000000    4.90999985    1.00000000
   19.60250092   -1.00000000    4.90999985    0.69000000
   19.60555649   -1.00000000    4.90999985    0.46000001
   19.60888863   90.19560242    4.90999985    1.11000001
   19.61222267   -1.00000000    4.90999985    2.21000004
   19.61527824   -1.00000000    4.90999985    0.98000002
   19.61861038   -1.00000000    4.90999985    1.25000000
   19.62194443   -1.00000000    4.90999985    1.07000005
   19.62555504   -1.00000000    4.90999985    1.13000000
   19.62861061   -1.00000000    4.90999985    1.16999996
   19.63194466   -1.00000000    4.90999985    2.09999990
   19.63500023   -1.00000000    4.90999985    1.41999996
   19.63833237   -1.00000000    4.90999985    0.83999997
   19.64194489   -1.00000000    4.90999985    0.98000002
   19.64638901   -1.00000000    4.90999985    1.76999998
   19.65055466   -1.00000000    4.90999985    1.16999996
   19.65361023  132.65600586    4.90999985    1.71000004
   19.65694427  108.26799774    4.90999985    2.13000011
   19.66027832  109.40599823    4.90999985    2.57999992
   19.66333389  129.60600281    4.90999985    1.38000000
   19.66666603   77.69480133    4.90999985    2.44000006
   19.66972160   75.29730225    4.90999985    2.66000009
   19.67305565   74.79530334    4.90999985    2.67000008
   19.67444420   74.45300293    4.90999985    2.61999989
   19.67666626   74.10669708    4.90999985    2.67000008
   19.68000031   81.59210205    4.90999985    2.57999992
   19.68305397  127.51200104    4.90999985    2.07999992
   19.68638802   90.84940338    4.90999985    2.69000006
   19.68944359   85.29640198    4.90999985    2.55999994
   19.69277763   73.92169952    4.90999985    2.64000010
   19.69749832   73.92169952    4.90999985    2.66000009
   19.70166779   76.05039978    4.90999985    2.66000009
   19.70499992   78.29180145    4.90999985    2.64000010
   19.70805550   72.19069672    4.90999985    2.66000009
   19.71138954   75.07189941    4.90999985    2.66000009
   19.71472359   72.19979858    4.90999985    2.59999990
   19.71777916   -1.00000000    4.90999985    2.69000006
   19.72111130  139.77999878    4.90999985    1.94000006
   19.72416687   75.32749939    4.90999985    2.42000008
   19.72472191   77.55249786    4.90999985    2.42000008
   19.72805595   82.88939667    4.90999985    2.48000002
   19.73139000  101.33100128    4.90999985    2.48000002
   19.73444557   -1.00000000    4.90999985    1.36000001
   19.73777771  130.41000366    4.90999985    1.14999998
   19.74083328   87.78810120    4.90999985    1.88000000
   19.74416733   75.34639740    4.90999985    2.59999990
   19.74861145   75.34639740    4.90999985    2.46000004
   19.75277710   -1.00000000    4.90999985    2.69000006
   19.75611115   -1.00000000    4.90999985    1.23000002
   19.75916672  124.54199982    4.90999985    1.78999996
   19.76250076   -1.00000000    4.90999985    2.36999989
   19.76583290  113.26999664    4.90999985    1.23000002
   19.76888847  116.46700287    4.90999985    2.40000010
   19.77222252   -1.00000000    4.90999985    1.91999996
   19.77472115   81.27290344    4.90999985    1.80999994
   19.77583313   76.00820160    4.90999985    2.39000010
   19.77916718   87.99700165    4.90999985    1.66999996
   19.78222275   87.69249725    4.90999985    2.03999996
   19.78555489   84.19329834    4.90999985    1.91999996
   19.78861046  108.40899658    4.90999985    2.00000000
   19.79194450   74.05190277    4.90999985    2.42000008
   19.79527664   99.80500031    4.90999985    2.32999992
   19.79999924   99.80500031    4.90999985    2.46000004
   19.80388832   75.64820099    4.90999985    2.53999996
   19.80722237   74.20480347    4.90999985    2.30999994
   19.81055450   74.79560089    4.90999985    2.55999994
   19.81361008   75.01999664    4.90999985    2.59999990
   19.81694603   74.63220215    4.90999985    2.55999994
   19.82027817   74.10510254    4.90999985    2.61999989
   19.82333374   74.34200287    4.90999985    2.61999989
   19.82472229   73.57319641    4.90999985    2.64000010
   19.82694626   74.86530304    4.90999985    2.64000010
   19.83027840   73.85489655    4.90999985    2.64000010
   19.83333397   73.94480133    4.90999985    2.64000010
   19.83666801   76.73889923    4.90999985    2.48000002
   19.84000015   71.82939911    4.90999985    2.50000000
   19.84305573   76.53350067    4.90999985    2.61999989
   19.84638977   73.35479736    4.90999985    2.44000006
   19.85111237   73.35479736    4.90999985    2.64000010
   19.85527802   75.13459778    4.90999985    2.64000010
   19.85833359   76.82779694    4.90999985    2.51999998
   19.86166763  152.02600098    4.90999985    2.67000008
   19.86499977   70.08670044    4.90999985    1.36000001
   19.86805534  134.53599548    4.90999985    2.46000004
   19.87138939   74.32260132    4.90999985    2.67000008
   19.87444496   74.51419830    4.90999985    2.67000008
   19.87500000   71.05850220    4.90999985    2.51999998
   19.87833405   70.37920380    4.90999985    2.61999989
   19.88166618   72.22720337    4.90999985    2.64000010
   19.88472176   71.54399872    4.90999985    2.66000009
   19.88805580   74.61990356    4.90999985    2.34999990
   19.89138794   75.72339630    4.90999985    2.66000009
   19.89444351   77.24210358    4.90999985    2.59999990
   19.89777756  101.95800018    4.90999985    2.46000004
   19.90222168  101.95800018    4.90999985    1.91999996
   19.90638924  107.97399902    4.90999985    2.69000006
   19.90972137  111.04000092    4.90999985    2.17000008
   19.91277695   84.78710175    4.90999985    1.76999998
   19.91611099   80.16719818    4.90999985    2.66000009
   19.91944313   73.95059967    4.90999985    2.67000008
   19.92249870   88.59010315    4.90999985    2.26999998
   19.92527771   77.68640137    4.90999985    2.42000008
   19.92611122   75.59999847    4.90999985    2.59999990
   19.92944336   72.22440338    4.90999985    2.61999989
   19.93249893   70.41120148    4.90999985    2.61999989
   19.93583298   76.53780365    4.90999985    2.64000010
   19.93916512   72.60330200    4.90999985    2.64000010
   19.94222069   71.39739990    4.90999985    2.64000010
   19.94555473   78.29209900    4.90999985    2.64000010
   19.94888878   78.71260071    4.90999985    2.61999989
   19.95333481   78.71260071    4.90999985    2.57999992
   19.95750046   72.30879974    4.90999985    2.61999989
   19.96083450   -1.00000000    4.90999985    2.66000009
   19.96389008   -1.00000000    4.90999985    0.69000000
   19.96722221   -1.00000000    4.90999985    0.55000001
   19.97055626  169.32099915    4.90999985    0.88000000
   19.97361183   -1.00000000    4.90999985    1.66999996
   19.97722244   -1.00000000    4.90999985    0.30000001
   19.98027802   79.89350128    4.90999985    2.39000010
   19.98361206   73.23989868    4.90999985    2.67000008
   19.98694420   75.65380096    4.90999985    2.64000010
   19.98999977   75.90149689    4.90999985    2.42000008
   19.99333382   72.01789856    4.90999985    2.55999994
   19.99666786   72.84349823    4.90999985    2.66000009
   19.99972153   91.43650055    4.90999985    2.57999992
   20.00472260   91.43650055    4.90999985    2.64000010
   20.00861168  170.45700073    4.90999985    2.42000008
   20.01194382   75.13529968    4.90999985    2.28999996
   20.01527786   78.90670013    4.90999985    2.61999989
   20.01833344   -1.00000000    4.90999985    2.42000008
   20.02166557   84.34980011    4.90999985    1.09000003
   20.02499962   72.12159729    4.90999985    2.50000000
   20.02555466   74.97730255    4.90999985    2.50000000
   20.02861023   74.38089752    4.90999985    2.61999989
   20.03194427   72.47570038    4.90999985    2.64000010
   20.03499985   74.15409851    4.90999985    2.64000010
   20.03833199   74.79630280    4.90999985    2.59999990
   20.04166603   75.54519653    4.90999985    2.48000002
   20.04472160   74.21130371    4.90999985    2.50000000
   20.04805565   74.09860229    4.90999985    2.57999992
   20.05138779   75.04910278    4.90999985    2.57999992
   20.05583191   75.04910278    4.90999985    2.59999990
   20.05999947   76.98339844    4.90999985    2.57999992
   20.06305504   75.91339874    4.90999985    1.96000004
   20.06638718   72.80799866    4.90999985    2.57999992
   20.06972313   73.03959656    4.90999985    2.59999990
   20.07277870   71.74579620    4.90999985    2.61999989
   20.07555580   71.77719879    4.90999985    2.61999989
   20.07638931   71.96150208    4.90999985    2.61999989
   20.07972336   75.14959717    4.90999985    2.64000010
   20.08277893  103.11199951    4.90999985    1.91999996
   20.08611107   79.12999725    4.90999985    2.66000009
   20.08944511   76.33249664    4.90999985    2.05999994
   20.09250069   76.42449951    4.90999985    1.64999998
   20.09583473   73.97699738    4.90999985    2.69000006
   20.09916687   72.49929810    4.90999985    2.67000008
   20.10222244   72.70279694    4.90999985    2.64000010
   20.10694504   72.70279694    4.90999985    2.61999989
   20.11111069   72.16680145    4.90999985    2.59999990
   20.11444473   71.93329620    4.90999985    2.61999989
   20.11750031   72.80490112    4.90999985    2.61999989
   20.12083435   71.60839844    4.90999985    2.59999990
   20.14055634   72.58679962    4.90999985    2.59999990
   20.14111137   71.83560181    4.90999985    2.61999989
   20.14416695   73.54840088    4.90999985    2.61999989
   20.14749908   72.28309631    4.90999985    2.61999989
   20.15055466   71.49379730    4.90999985    2.59999990
   20.15388870   70.23400116    4.90999985    2.59999990
   20.15805435   70.23400116    4.90999985    2.61999989
   20.16222191   71.91179657    4.90999985    2.59999990
   20.16555595   72.78600311    4.90999985    2.59999990
   20.16860962   71.76570129    4.90999985    2.59999990
   20.17194366   73.34410095    4.90999985    2.59999990
   20.17527771   74.92230225    4.90999985    2.57999992
   20.17833328   73.93039703    4.90999985    2.59999990
   20.18166542   73.22070313    4.90999985    2.59999990
   20.18499947   70.81829834    4.90999985    2.61999989
   20.18805504   73.08679962    4.90999985    2.59999990
   20.19111061   77.02660370    4.90999985    2.57999992
   20.19166565   72.80159760    4.90999985    2.57999992
   20.19499969   72.00569916    4.90999985    2.55999994
   20.19833183   77.21649933    4.90999985    2.42000008
   20.20138931   73.21320343    4.90999985    2.64000010
   20.20472336   23.57019997    4.90999985    2.44000006
   20.20944595   23.57019997    4.90999985    2.59999990
   20.21333504   71.73090363    4.90999985    2.55999994
   20.21666718   73.44940186    4.90999985    2.59999990
   20.22000122   74.36620331    4.90999985    2.61999989
   20.22305679   70.77390289    4.90999985    2.59999990
   20.22638893   73.45629883    4.90999985    2.59999990
   20.22972298   73.54620361    4.90999985    2.57999992
   20.23277855   72.43669891    4.90999985    2.59999990
   20.23611069   72.51450348    4.90999985    2.59999990
   20.23916626   71.53919983    4.90999985    2.57999992
   20.24111176   71.54060364    4.90999985    2.59999990
   20.24277878   72.18890381    4.90999985    2.59999990
   20.24611092   71.28250122    4.90999985    2.59999990
   20.24944496   71.87519836    4.90999985    2.59999990
   20.25250053   72.25710297    4.90999985    2.59999990
   20.25583267   72.35720062    4.90999985    2.57999992
   20.26055527   72.35720062    4.90999985    2.59999990
   20.26472282   73.35330200    4.90999985    2.57999992
   20.26777840   73.82230377    4.90999985    2.57999992
   20.27111053   74.62359619    4.90999985    2.57999992
   20.27444458   71.38629913    4.90999985    2.57999992
   20.27777672   71.64800262    4.90999985    2.57999992
   20.28083229   72.99099731    4.90999985    2.57999992
   20.28416634   72.46170044    4.90999985    2.59999990
   20.28722191   74.13849640    4.90999985    2.57999992
   20.29055595   73.24279785    4.90999985    2.59999990
   20.29111099   72.86270142    4.90999985    2.59999990
   20.29416656   74.82540131    4.90999985    2.55999994
   20.29722214   75.85469818    4.90999985    2.59999990
   20.30055428   92.87349701    4.90999985    2.66000009
   20.30388832   -1.00000000    4.90999985    1.34000003
   20.30694389   -1.00000000    4.90999985    0.25000000
   20.31166649   -1.00000000    4.90999985    1.28999996
   20.31583214   88.40090179    4.90999985    1.46000004
   20.31916809   73.67530060    4.90999985    2.51999998
   20.32222366   73.29429626    4.90999985    2.66000009
   20.32555580   73.34950256    4.90999985    2.61999989
   20.32861137   74.82469940    4.90999985    2.59999990
   20.33194542   73.51000214    4.90999985    2.57999992
   20.33527756   71.12960052    4.90999985    2.57999992
   20.33833313   73.05860138    4.90999985    2.57999992
   20.34111214   73.24880219    4.90999985    2.57999992
   20.34222221   72.80300140    4.90999985    2.57999992
   20.34527779   72.82019806    4.90999985    2.55999994
   20.34861183   73.84210205    4.90999985    2.53999996
   20.35194397   74.90609741    4.90999985    2.55999994
   20.35499954   74.44419861    4.90999985    2.55999994
   20.35833359   73.59940338    4.90999985    2.55999994
   20.36277771   73.59940338    4.90999985    2.55999994
   20.36694527   74.00019836    4.90999985    2.55999994
   20.37027740   72.46600342    4.90999985    2.55999994
   20.37333298   73.72930145    4.90999985    2.57999992
   20.37666702   72.99099731    4.90999985    2.55999994
   20.38000107   72.63110352    4.90999985    2.55999994
   20.38333321   73.78150177    4.90999985    2.57999992
   20.38638878   73.53720093    4.90999985    2.55999994
   20.38972282   71.20809937    4.90999985    2.57999992
   20.39138794   73.19450378    4.90999985    2.55999994
   20.39333344   72.51930237    4.90999985    2.57999992
   20.39666748   72.92369843    4.90999985    2.57999992
   20.39999962   71.42919922    4.90999985    2.55999994
   20.40305519   72.92430115    4.90999985    2.55999994
   20.40638924   75.88700104    4.90999985    2.55999994
   20.40972137   72.46659851    4.90999985    2.55999994
   20.41416550   72.46659851    4.90999985    2.55999994
   20.41805458   70.96579742    4.90999985    2.55999994
   20.42138863   72.41380310    4.90999985    2.55999994
   20.42472076   71.54650116    4.90999985    2.57999992
   20.42777634   71.80539703    4.90999985    2.55999994
   20.43111038   73.29049683    4.90999985    2.55999994
   20.43444443   73.75720215    4.90999985    2.53999996
   20.43750000   73.66680145    4.90999985    2.55999994
   20.44083214   73.92620087    4.90999985    2.55999994
   20.44138718   72.44730377    4.90999985    2.55999994
   20.44416618   72.44190216    4.90999985    2.55999994
   20.44749832   75.93289948    4.90999985    2.55999994
   20.45083427   75.22540283    4.90999985    2.53999996
   20.45388985   73.99389648    4.90999985    2.53999996
   20.45722389   73.32559967    4.90999985    2.53999996
   20.46055603   72.63259888    4.90999985    2.53999996
   20.46527863   72.63259888    4.90999985    2.55999994
   20.46944427   74.69560242    4.90999985    2.55999994
   20.47249985   74.37879944    4.90999985    2.53999996
   20.47583389   72.06710052    4.90999985    2.53999996
   20.47916794   72.06890106    4.90999985    2.53999996
   20.48222351   71.85459900    4.90999985    2.51999998
   20.48555565   72.83270264    4.90999985    2.53999996
   20.48888969   71.52490234    4.90999985    2.55999994
   20.49138832   72.96440125    4.90999985    2.53999996
   20.49222183   74.77249908    4.90999985    2.55999994
   20.49555588   72.38649750    4.90999985    2.53999996
   20.49888992   73.91690063    4.90999985    2.55999994
   20.50194359   71.94760132    4.90999985    2.55999994
   20.50527763   74.79429626    4.90999985    2.53999996
   20.50861168   72.62270355    4.90999985    2.55999994
   20.51166725   71.48760223    4.90999985    2.53999996
   20.51638794   71.48760223    4.90999985    2.53999996
   20.52055550   74.00800323    4.90999985    2.53999996
   20.52361107   72.48249817    4.90999985    2.53999996
   20.52694511   72.46070099    4.90999985    2.53999996
   20.53027725   73.26409912    4.90999985    2.55999994
   20.53333282   73.12039948    4.90999985    2.55999994
   20.53666687   73.14630127    4.90999985    2.55999994
   20.53999901   72.47859955    4.90999985    2.51999998
   20.54138756   73.65689850    4.90999985    2.53999996
   20.54361153   73.97470093    4.90999985    2.53999996
   20.54666710   73.01699829    4.90999985    2.50000000
   20.54999924   72.05509949    4.90999985    2.51999998
   20.55305481   79.75579834    4.90999985    2.53999996
   20.55638885   72.31529999    4.90999985    2.51999998
   20.55972099   74.65480042    4.90999985    2.53999996
   20.56277657   71.39630127    4.90999985    2.53999996
   20.56750107   71.39630127    4.90999985    2.53999996
   20.57166672   75.16400146    4.90999985    2.53999996
   20.57500076   75.93699646    4.90999985    2.50000000
   20.57805634   72.77709961    4.90999985    2.53999996
   20.58139038   77.94869995    4.90999985    2.46000004
   20.58472252   73.95839691    4.90999985    2.46000004
   20.58777809   74.36370087    4.90999985    2.46000004
   20.59111214   75.65820313    4.90999985    2.50000000
   20.59166718   74.31529999    4.90999985    2.50000000
   20.59500122   73.48210144    4.90999985    2.46000004
   20.59805679   76.35810089    4.90999985    2.36999989
   20.60138893   78.26580048    4.90999985    2.39000010
   20.60472298   75.58599854    4.90999985    2.39000010
   20.60777855   78.48930359    4.90999985    2.48000002
   20.61111069   72.94190216    4.90999985    2.48000002
   20.61416626   72.41230011    4.90999985    2.50000000
   20.61861038   72.41230011    4.90999985    2.51999998
   20.62277794   76.33000183    4.90999985    2.55999994
   20.62611198   85.22619629    4.90999985    2.46000004
   20.62944412   77.98449707    4.90999985    2.25000000
   20.63249969   73.15720367    4.90999985    2.42000008
   20.63583374   77.16709900    4.90999985    2.40000010
   20.63888931   73.52059937    4.90999985    2.44000006
   20.64166641   72.95529938    4.90999985    2.50000000
   20.64277840   73.84590149    4.90999985    2.50000000
   20.64583397   71.70379639    4.90999985    2.53999996
   20.64916611   72.50779724    4.90999985    2.53999996
   20.65250015   71.94309998    4.90999985    2.53999996
   20.65555573   73.27989960    4.90999985    2.51999998
   20.65888786   72.76640320    4.90999985    2.50000000
   20.66194344   79.38600159    4.90999985    2.40000010
   20.66527748   76.91230011    4.90999985    2.25000000
   20.67000008   76.91230011    4.90999985    2.40000010
   20.67416573   80.66999817    4.90999985    2.26999998
   20.67722130   97.01429749    4.90999985    2.25000000
   20.68055534   77.61239624    4.90999985    1.98000002
   20.68361092   73.04029846    4.90999985    2.46000004
   20.68694305   73.94719696    4.90999985    2.50000000
   20.69027710   72.12979889    4.90999985    2.51999998
   20.69166565   72.54900360    4.90999985    2.51999998
   20.69388771   75.30590057    4.90999985    2.53999996
   20.69694328   73.40489960    4.90999985    2.55999994
   20.70027924   75.07260132    4.90999985    2.46000004
   20.70361137   87.40059662    4.90999985    2.34999990
   20.70666695   77.89040375    4.90999985    2.26999998
   20.71000099   74.06600189    4.90999985    2.36999989
   20.71333504   79.45890045    4.90999985    2.42000008
   20.71638870   82.41870117    4.90999985    2.28999996
   20.72111130   82.41870117    4.90999985    2.32999992
   20.72527885   78.64510345    4.90999985    2.39000010
   20.72833443   79.04570007    4.90999985    2.36999989
   20.73166656   79.84079742    4.90999985    2.34999990
   20.73500061   77.39360046    4.90999985    2.36999989
   20.73805618   73.79129791    4.90999985    2.44000006
   20.74138832   76.78119659    4.90999985    2.46000004
   20.74194527   76.04910278    4.90999985    2.40000010
   20.74527740   74.81520081    4.90999985    2.30999994
   20.74833298   75.63960266    4.90999985    2.42000008
   20.75166702   75.30269623    4.90999985    2.40000010
   20.75472260   75.10299683    4.90999985    2.42000008
   20.75805473   71.50299835    4.90999985    2.48000002
   20.76138878   74.07499695    4.90999985    2.46000004
   20.76444435   78.04769897    4.90999985    2.30999994
   20.76777840   77.24690247    4.90999985    2.39000010
   20.77222252   77.24690247    4.90999985    2.39000010
   20.77638817   74.00910187    4.90999985    2.36999989
   20.77972221   76.10070038    4.90999985    2.42000008
   20.78277779   76.87709808    4.90999985    2.40000010
   20.78610992   75.25540161    4.90999985    2.40000010
   20.78944397   74.98950195    4.90999985    2.46000004
   20.79194450   75.82050323    4.90999985    2.46000004
   20.79305458   73.85350037    4.90999985    2.42000008
   20.79611015   74.32520294    4.90999985    2.46000004
   20.79944420   73.57369995    4.90999985    2.46000004
   20.80249977   75.14160156    4.90999985    2.46000004
   20.80583191   73.05960083    4.90999985    2.42000008
   20.80916595   76.56659698    4.90999985    2.48000002
   20.81222153   73.62580109    4.90999985    2.48000002
   20.81555557   74.84980011    4.90999985    2.48000002
   20.81888962   74.56069946    4.90999985    2.46000004
   20.82333374   74.56069946    4.90999985    2.26999998
   20.82750130   75.29070282    4.90999985    2.40000010
   20.83083344   75.40550232    4.90999985    2.46000004
   20.83416748   74.41909790    4.90999985    2.46000004
   20.83722305   77.23020172    4.90999985    2.36999989
   20.84055710   75.95510101    4.90999985    2.40000010
   20.84194565   75.29229736    4.90999985    2.39000010
   20.84416771   76.64849854    4.90999985    2.36999989
   20.84722328   73.19210052    4.90999985    2.32999992
   20.85055542   73.02770233    4.90999985    2.46000004
   20.85388947   73.95290375    4.90999985    2.48000002
   20.85694504   72.69100189    4.90999985    2.46000004
   20.86027908   74.64389801    4.90999985    2.48000002
   20.86333466   75.48010254    4.90999985    2.42000008
   20.86666679   75.68199921    4.90999985    2.42000008
   20.87000084   74.43730164    4.90999985    2.48000002
   20.87472153   74.43730164    4.90999985    2.44000006
   20.87888908   74.16790009    4.90999985    2.42000008
   20.88194466   72.59529877    4.90999985    2.46000004
   20.88527679   72.26529694    4.90999985    2.46000004
   20.88833237   72.89749908    4.90999985    2.46000004
   20.89166641   74.00360107    4.90999985    2.48000002
   20.89222145   72.35970306    4.90999985    2.46000004
   20.89555550   71.74700165    4.90999985    2.46000004
   20.89888954   73.39330292    4.90999985    2.42000008
   20.90194321   74.13420105    4.90999985    2.42000008
   20.90527725   77.39679718    4.90999985    2.46000004
   20.90833282   74.82209778    4.90999985    2.46000004
   20.91166687   72.51770020    4.90999985    2.46000004
   20.91499901   -1.00000000    4.90999985    2.44000006
   20.91805458   -1.00000000    4.90999985    2.44000006
   20.92138863   -1.00000000    4.90999985    2.48000002
   20.92972183   -1.00000000    4.90999985    2.46000004
   20.93305397   -1.00000000    4.90999985    2.46000004
   20.93638802   -1.00000000    4.90999985    2.46000004
   20.93944359   -1.00000000    4.90999985    2.42000008
   20.94333267   -1.00000000    4.90999985    2.44000006
   20.94638824   -1.00000000    4.90999985    2.46000004
   20.94972038   -1.00000000    4.90999985    2.46000004
   20.95305634   -1.00000000    4.90999985    2.44000006
   20.95611191   74.02549744    4.90999985    2.46000004
   20.95944595   76.09549713    4.90999985    2.39000010
   20.96250153   74.20610046    4.90999985    2.40000010
   20.96583366   75.28369904    4.90999985    2.40000010
   20.96916771   73.12760162    4.90999985    2.39000010
   20.97222328   75.22270203    4.90999985    2.34999990
   20.97694588   75.22270203    4.90999985    2.28999996
   20.98111153   75.39520264    4.90999985    2.32999992
   20.98444557   76.42079926    4.90999985    2.39000010
   20.98750114   83.23329926    4.90999985    2.26999998
   20.99083328   77.07099915    4.90999985    2.25000000
   20.99222183   77.92060089    4.90999985    2.25000000
   20.99444389   74.73190308    4.90999985    2.28999996
   20.99777794   74.79720306    4.90999985    2.44000006
   21.00083351   76.52629852    4.90999985    2.42000008
   21.00416756   77.94000244    4.90999985    2.39000010
   21.00749969   77.12090302    4.90999985    2.26999998
   21.01055527   81.19499969    4.90999985    2.26999998
   21.01388931   77.55590057    4.90999985    2.34999990
   21.01722145   75.03250122    4.90999985    2.36999989
   21.02027702   75.42420197    4.90999985    2.34999990
   21.02361107   76.83460236    4.90999985    2.39000010
   21.02833366   76.83460236    4.90999985    2.32999992
   21.03249931   74.09870148    4.90999985    2.36999989
   21.03555489   74.88819885    4.90999985    2.40000010
   21.03888893   76.96330261    4.90999985    2.39000010
   21.04222107   80.23290253    4.90999985    2.28999996
   21.04277802   77.11840057    4.90999985    2.28999996
   21.04583359   80.58999634    4.90999985    2.21000004
   21.04916573   80.53710175    4.90999985    2.19000006
   21.05222130   83.10189819    4.90999985    2.19000006
   21.05555534   82.95279694    4.90999985    2.13000011
   21.05888748   81.41770172    4.90999985    2.11999989
   21.06194305   78.58689880    4.90999985    2.15000010
   21.06527710   79.72959900    4.90999985    2.19000006
   21.06861115   75.80480194    4.90999985    2.17000008
   21.07166672   77.46620178    4.90999985    2.26999998
   21.07500076   80.97630310    4.90999985    2.19000006
   21.07944489   80.97630310    4.90999985    2.09999990
   21.08361244   94.14800262    4.90999985    2.00000000
   21.08694458   99.89749908    4.90999985    1.91999996
   21.09000015   99.87280273    4.90999985    1.86000001
   21.09277916  114.24600220    4.90999985    1.86000001
   21.09361267   94.19899750    4.90999985    1.86000001
   21.09694481   90.26460266    4.90999985    1.83000004
   21.10000038   83.62249756    4.90999985    1.98000002
   21.10333443   84.12069702    4.90999985    2.07999992
   21.10666656   79.19640350    4.90999985    2.03999996
   21.10972214   77.80180359    4.90999985    2.17000008
   21.11305618   83.80770111    4.90999985    2.26999998
   21.11638832   77.84079742    4.90999985    2.28999996
   21.11944389   78.51740265    4.90999985    2.26999998
   21.12277794   77.89929962    4.90999985    2.21000004
   21.12583351   81.05180359    4.90999985    2.25000000
   21.13055611   81.05180359    4.90999985    2.11999989
   21.13472176   86.36849976    4.90999985    2.03999996
   21.13805580   94.50180054    4.90999985    2.01999998
   21.15722275  109.49299622    4.90999985    1.71000004
   21.15805435  123.38700104    4.90999985    1.71000004
   21.16110992   -1.00000000    4.90999985    1.85000002
   21.16444397  157.71200562    4.90999985    1.53999996
   21.16777802  194.27299500    4.90999985    1.64999998
   21.17083359  123.24500275    4.90999985    1.71000004
   21.17416573   99.79820251    4.90999985    1.76999998
   21.17722130   96.02700043    4.90999985    1.98000002
   21.18194389   96.02700043    4.90999985    1.98000002
   21.18610954  154.02900696    4.90999985    1.75000000
   21.18916512  126.76200104    4.90999985    1.63000000
   21.19249916   98.25509644    4.90999985    1.75000000
   21.19555473   86.76519775    4.90999985    1.94000006
   21.19888878   87.76789856    4.90999985    1.98000002
   21.20222282   91.44100189    4.90999985    2.00000000
   21.20527840  157.99699402    4.90999985    2.01999998
   21.20722389  187.99000549    4.90999985    1.80999994
   21.20888901  153.46800232    4.90999985    1.71000004
   21.21222305   90.81320190    4.90999985    1.64999998
   21.21555710   88.35209656    4.90999985    2.00000000
   21.21861076   88.63919830    4.90999985    1.98000002
   21.22194481  102.93599701    4.90999985    1.98000002
   21.22500038  108.56700134    4.90999985    1.85000002
   21.22833443  116.60800171    4.90999985    1.85000002
   21.23305511  116.60800171    4.90999985    1.88000000
   21.23722267   85.06310272    4.90999985    1.91999996
   21.24027824   84.23139954    4.90999985    2.01999998
   21.24361229   87.22070313    4.90999985    2.05999994
   21.24694443  105.92800140    4.90999985    2.05999994
   21.25000000   89.25939941    4.90999985    1.88000000
   21.25333405   93.06970215    4.90999985    1.98000002
   21.25666618   81.88770294    4.90999985    1.96000004
   21.25722313   77.51139832    4.90999985    1.96000004
   21.26000023   77.76159668    4.90999985    2.11999989
   21.26333427   82.10790253    4.90999985    2.19000006
   21.26666641   83.55349731    4.90999985    2.01999998
   21.26972198   89.54900360    4.90999985    2.03999996
   21.27305603   89.37779999    4.90999985    2.03999996
   21.27638817   85.49629974    4.90999985    1.94000006
   21.27944374   79.87879944    4.90999985    2.05999994
   21.28416634   79.87879944    4.90999985    2.11999989
   21.28833199   76.21130371    4.90999985    2.15000010
   21.29166603   78.92050171    4.90999985    2.21000004
   21.29472160   79.25170135    4.90999985    2.26999998
   21.29805565   92.25559998    4.90999985    2.13000011
   21.30138779   99.82279968    4.90999985    1.96000004
   21.30444336   91.06809998    4.90999985    1.85000002
   21.30805397   -1.00000000    4.90999985    1.58000004
   21.31138802   -1.00000000    4.90999985    1.30999994
   21.31444359   -1.00000000    4.90999985    1.11000001
   21.31777954   -1.00000000    4.90999985    0.86000001
   21.32111168   -1.00000000    4.90999985    0.80000001
   21.32416725   -1.00000000    4.90999985    0.79000002
   21.32750130   -1.00000000    4.90999985    0.51999998
   21.33055687   -1.00000000    4.90999985    0.40000001
   21.33944511   -1.00000000    4.90999985    0.36000001
   21.34277916   -1.00000000    4.90999985    0.30000001
   21.34583473   -1.00000000    4.90999985    0.30000001
   21.34916687   -1.00000000    4.90999985    0.25999999
   21.35222244   -1.00000000    4.90999985    0.25999999
   21.35555649   -1.00000000    4.90999985    0.34000000
   21.35916710   -1.00000000    4.90999985    0.34000000
   21.36250114   -1.00000000    4.90999985    0.17000000
   21.36555672   -1.00000000    1.60000002    0.01000000
   21.36888885   -1.00000000    1.60000002    0.01000000
   21.37222290   -1.00000000    1.60000002    0.01000000
   21.37527847   -1.00000000    1.60000002    0.01000000
   21.37861061   -1.00000000    1.60000002    0.01000000
   21.38194466   -1.00000000    1.60000002    0.01000000
   21.39055634   -1.00000000    1.60000002    0.01000000
   21.39388847   -1.00000000    1.60000002    0.01000000
   21.39694405   -1.00000000    1.60000002    0.01000000
   21.40027809   -1.00000000    1.60000002    0.01000000
   21.40361023   -1.00000000    1.60000002    0.01000000
   21.40666580   -1.00000000    1.60000002    0.01000000
   21.41027832   -1.00000000    1.60000002    0.01000000
   21.41333389   -1.00000000    1.60000002    0.01000000
   21.41666603   -1.00000000    1.60000002    0.01000000
   21.41972160   -1.00000000    1.60000002    0.01000000
   21.42305565   -1.00000000    1.60000002    0.01000000
   21.42638779   -1.00000000    1.60000002    0.01000000
   21.42944336   -1.00000000    1.60000002    0.01000000
   21.43277740   -1.00000000    1.60000002    0.01000000
   21.44166565   -1.00000000    1.60000002    0.01000000
   21.44499969   -1.00000000    1.60000002    0.01000000
   21.44833183   -1.00000000    1.60000002    0.01000000
   21.45138931   -1.00000000    1.60000002    0.01000000
   21.45472336   -1.00000000    1.60000002    0.01000000
   21.45833397   -1.00000000    1.60000002    0.01000000
   21.46138954   -1.00000000    1.60000002    0.01000000
   21.46472359   -1.00000000    1.60000002    0.01000000
   21.46777916   -1.00000000    1.60000002    0.01000000
   21.47111130   -1.00000000    1.60000002    0.01000000
   21.47444534   -1.00000000    1.60000002    0.01000000
   21.47750092   -1.00000000    1.60000002    0.01000000
   21.48083305   -1.00000000    1.60000002    0.01000000
   21.48416710   -1.00000000    1.60000002    0.01000000
   21.49305534   -1.00000000    1.60000002    0.01000000
   21.49611092   -1.00000000    1.60000002    0.01000000
   21.49944496   -1.00000000    1.60000002    0.01000000
   21.50277710   -1.00000000    1.60000002    0.01000000
   21.50583267   -1.00000000    1.60000002    0.01000000
   21.50944519   -1.00000000    1.60000002    0.01000000
   21.51250076   -1.00000000    1.60000002    0.01000000
   21.51583290   -1.00000000    1.60000002    0.01000000
   21.51888847   -1.00000000    1.60000002    0.01000000
   21.52222252   -1.00000000    1.60000002    0.01000000
   21.52555466   -1.00000000    1.60000002    0.01000000
   21.52861023   -1.00000000    1.60000002    0.01000000
   21.53194427   -1.00000000    1.60000002    0.01000000
   21.53527641   -1.00000000    1.60000002    0.01000000
   21.54416656   -1.00000000    1.60000002    0.01000000
   21.54749870   -1.00000000    1.60000002    0.01000000
   21.55055428   -1.00000000    1.60000002    0.01000000
   21.55388832   -1.00000000    1.60000002    0.01000000
   21.55694389   -1.00000000    1.60000002    0.01000000
   21.56083298   -1.00000000    1.60000002    0.01000000
   21.56388855   -1.00000000    1.60000002    0.01000000
   21.56722260   -1.00000000    1.60000002    0.01000000
   21.57055664   -1.00000000    1.60000002    0.01000000
   21.57361221   -1.00000000    1.60000002    0.01000000
   21.57694626   -1.00000000    1.60000002    0.01000000
   21.58000183   -1.00000000    1.60000002    0.01000000
   21.58333397   -1.00000000    1.60000002    0.01000000
   21.58666801   -1.00000000    1.60000002    0.01000000
   21.59527779   -1.00000000    1.60000002    0.01000000
   21.59861183   -1.00000000    1.60000002    0.01000000
   21.60166740   -1.00000000    1.60000002    0.01000000
   21.60499954   -1.00000000    1.60000002    0.01000000
   21.60861206   -1.00000000    1.60000002    0.01000000
   21.61166763   -1.00000000    1.60000002    0.01000000
   21.61499977   -1.00000000    1.60000002    0.01000000
   21.61833382   -1.00000000    1.60000002    0.01000000
   21.62138939   -1.00000000    1.60000002    0.01000000
   21.62472153   -1.00000000    1.60000002    0.01000000
   21.62805557   -1.00000000    1.60000002    0.01000000
   21.63111115   -1.00000000    1.60000002    0.01000000
   21.63444519   -1.00000000    1.60000002    0.01000000
   21.63750076   -1.00000000    1.60000002    0.01000000
   21.64638901   -1.00000000    1.60000002    0.01000000
   21.64972115   -1.00000000    1.60000002    0.01000000
   21.65305519   -1.00000000    1.60000002    0.01000000
   21.65611076   -1.00000000    1.60000002    0.01000000
   21.65972137   -1.00000000    1.60000002    0.01000000
   21.66305542   -1.00000000    1.60000002    0.01000000
   21.66611099   -1.00000000    1.60000002    0.01000000
   21.66944313   -1.00000000    1.60000002    0.01000000
   21.67277718   -1.00000000    1.60000002    0.01000000
   21.67583275   -1.00000000    1.60000002    0.01000000
   21.67916679   -1.00000000    1.60000002    0.01000000
   21.68222237   -1.00000000    1.60000002    0.01000000
   21.68555450   -1.00000000    1.60000002    0.01000000
   21.68888855   -1.00000000    1.60000002    0.01000000
   21.69777679   -1.00000000    1.60000002    0.01000000
   21.70083427   -1.00000000    1.60000002    0.01000000
   21.70416832   -1.00000000    1.60000002    0.01000000
   21.70750046   -1.00000000    1.60000002    0.01000000
   21.71083450   -1.00000000    1.60000002    0.01000000
   21.71416664   -1.00000000    1.60000002    0.01000000
   21.71722221   -1.00000000    1.60000002    0.01000000
   21.72055626   -1.00000000    1.60000002    0.01000000
   21.72389030   -1.00000000    1.60000002    0.01000000
   21.72694588   -1.00000000    1.60000002    0.01000000
   21.73027802   -1.00000000    1.60000002    0.01000000
   21.73333359   -1.00000000    1.60000002    0.01000000
   21.73666763   -1.00000000    1.60000002    0.01000000
   21.73999977   -1.00000000    1.60000002    0.01000000
   21.74888992   -1.00000000    1.60000002    0.01000000
   21.75222206   -1.00000000    1.60000002    0.01000000
   21.75527763   -1.00000000    1.60000002    0.01000000
   21.75888824   -1.00000000    1.60000002    0.01000000
   21.76222229   -1.00000000    1.60000002    0.01000000
   21.76527786   -1.00000000    1.60000002    0.01000000
   21.76861000   -1.00000000    1.60000002    0.01000000
