    HOUR (UT)   FLARE FACTOR    SKY TESTER    SUN TESTER
   11.34583282   -1.00000000   -1.00000000   -1.00000000
   11.38833332   86.00180054    4.90999985    2.51999998
   11.39138889   88.92179871    4.90999985    2.50000000
   11.39472198   95.29910278    4.90999985    2.51999998
   11.39805508   89.90070343    4.90999985    2.51999998
   11.40111065   86.06710052    4.90999985    2.51999998
   11.40444374   86.43209839    4.90999985    2.51999998
   11.40777779   86.17440033    4.90999985    2.51999998
   11.41083336   91.21610260    4.90999985    2.51999998
   11.41694450   91.21610260    4.90999985    2.51999998
   11.42111111   86.19539642    4.90999985    2.51999998
   11.42416668   84.46739960    4.90999985    2.51999998
   11.42750072   95.12419891    4.90999985    2.51999998
   11.43055630   87.39820099    4.90999985    2.51999998
   11.43388939   86.96219635    4.90999985    2.53999996
   11.43722248   88.45529938    4.90999985    2.51999998
   11.43833351   85.99749756    4.90999985    2.53999996
   11.44055557   89.42160034    4.90999985    2.53999996
   11.44388866   88.21160126    4.90999985    2.51999998
   11.44722271   85.72180176    4.90999985    2.53999996
   11.45027733   88.31199646    4.90999985    2.53999996
   11.45361137   89.67720032    4.90999985    2.53999996
   11.45666695   84.72899628    4.90999985    2.53999996
   11.46000004   89.89129639    4.90999985    2.53999996
   11.46333313   86.54299927    4.90999985    2.53999996
   11.46805477   86.54299927    4.90999985    2.53999996
   11.47222137   84.95400238    4.90999985    2.55999994
   11.47527695   87.58609772    4.90999985    2.53999996
   11.47861099   82.39839935    4.90999985    2.53999996
   11.48194408   85.32890320    4.90999985    2.53999996
   11.48500061   90.34819794    4.90999985    2.53999996
   11.48833370   89.94110107    4.90999985    2.53999996
   11.48861122   82.43979645    4.90999985    2.53999996
   11.49194431   91.16390228    4.90999985    2.53999996
   11.49527836   83.39330292    4.90999985    2.53999996
   11.49833393   90.57980347    4.90999985    2.53999996
   11.50166702   88.62429810    4.90999985    2.55999994
   11.50472260   84.46959686    4.90999985    2.55999994
   11.50805569   82.05090332    4.90999985    2.55999994
   11.51138878   86.21240234    4.90999985    2.55999994
   11.51444435   81.83619690    4.90999985    2.55999994
   11.51916599   81.83619690    4.90999985    2.55999994
   11.52333355   86.99469757    4.90999985    2.55999994
   11.52666664   82.71949768    4.90999985    2.55999994
   11.52972221   83.12020111    4.90999985    2.55999994
   11.53305531   80.99120331    4.90999985    2.55999994
   11.53638935   85.71009827    4.90999985    2.55999994
   11.53833389   87.55539703    4.90999985    2.55999994
   11.53972244   85.61430359    4.90999985    2.55999994
   11.54305553   85.28820038    4.90999985    2.55999994
   11.54638958   80.61309814    4.90999985    2.55999994
   11.54944515   78.61679840    4.90999985    2.55999994
   11.55277824   84.98269653    4.90999985    2.55999994
   11.55611134   83.33489990    4.90999985    2.57999992
   11.55916691   83.40679932    4.90999985    2.57999992
   11.56250000   81.04479980    4.90999985    2.57999992
   11.56555557   80.20580292    4.90999985    2.57999992
   11.57027817   80.20580292    4.90999985    2.57999992
   11.57444477   85.08209991    4.90999985    2.57999992
   11.57777786   83.15750122    4.90999985    2.57999992
   11.58111095   84.09899902    4.90999985    2.59999990
   11.58416653   81.46820068    4.90999985    2.57999992
   11.58749962   86.59980011    4.90999985    2.57999992
   11.58833313   83.83920288    4.90999985    2.57999992
   11.59083271   92.46880341    4.90999985    2.57999992
   11.59416676   79.12860107    4.90999985    2.57999992
   11.59749985   84.07409668    4.90999985    2.57999992
   11.60055637   84.94719696    4.90999985    2.59999990
   11.60388947   88.31459808    4.90999985    2.59999990
   11.60722256   83.18479919    4.90999985    2.59999990
   11.61027813   82.65080261    4.90999985    2.59999990
   11.61361122   82.42859650    4.90999985    2.59999990
   11.61666679   83.28330231    4.90999985    2.59999990
   11.62166691   83.28330231    4.90999985    2.59999990
   11.62583351   87.89260101    4.90999985    2.59999990
   11.62888908   87.44909668    4.90999985    2.59999990
   11.63222218   83.90630341    4.90999985    2.59999990
   11.63527775   82.98940277    4.90999985    2.59999990
   11.63833332   81.02590179    4.90999985    2.59999990
   11.63888836   84.81300354    4.90999985    2.59999990
   11.64222240   78.62359619    4.90999985    2.59999990
   11.64555550   83.98899841    4.90999985    2.59999990
   11.64861107   85.90480042    4.90999985    2.59999990
   11.65194416   81.85700226    4.90999985    2.59999990
   11.65527725   83.65660095    4.90999985    2.61999989
   11.65833282   82.24749756    4.90999985    2.61999989
   11.66166592   85.31900024    4.90999985    2.59999990
   11.66472149   79.30970001    4.90999985    2.59999990
   11.66805553   79.39089966    4.90999985    2.59999990
   11.67277813   79.39089966    4.90999985    2.61999989
   11.67694473   85.08830261    4.90999985    2.61999989
   11.68000031   84.93270111    4.90999985    2.59999990
   11.68333340   82.47679901    4.90999985    2.61999989
   11.68666649   80.62190247    4.90999985    2.61999989
   11.68833351   79.06130219    4.90999985    2.59999990
   11.69000053   81.11730194    4.90999985    2.59999990
   11.69333363   82.58860016    4.90999985    2.59999990
   11.69666672   80.78700256    4.90999985    2.61999989
   11.69999981   81.36509705    4.90999985    2.61999989
   11.70305538   84.35189819    4.90999985    2.61999989
   11.70638847   84.56179810    4.90999985    2.59999990
   11.70944405  101.11100006    4.90999985    2.64000010
   11.71277714   90.53880310    4.90999985    2.61999989
   11.71611118   83.32279968    4.90999985    2.61999989
   11.71916580   84.68450165    4.90999985    2.61999989
   11.72388840   84.68450165    4.90999985    2.61999989
   11.72805500   81.16149902    4.90999985    2.64000010
   11.73138809   79.44830322    4.90999985    2.61999989
   11.73444462   77.86100006    4.90999985    2.61999989
   11.73777771   85.06050110    4.90999985    2.61999989
   11.73833370   86.46520233    4.90999985    2.61999989
   11.74138927   80.41459656    4.90999985    2.61999989
   11.74444485   78.73850250    4.90999985    2.64000010
   11.74777794   77.79409790    4.90999985    2.64000010
   11.75111103   80.87220001    4.90999985    2.64000010
   11.75416660   81.89009857    4.90999985    2.64000010
   11.75749969   85.17050171    4.90999985    2.64000010
   11.76083374   81.28579712    4.90999985    2.64000010
   11.76388931   84.98639679    4.90999985    2.64000010
   11.76722240   80.27449799    4.90999985    2.64000010
   11.77027798   80.28489685    4.90999985    2.64000010
   11.77499962   80.28489685    4.90999985    2.64000010
   11.77916622   84.88249969    4.90999985    2.64000010
   11.78249931   80.82299805    4.90999985    2.64000010
   11.78583336   79.87169647    4.90999985    2.64000010
   11.78833389   79.76570129    4.90999985    2.64000010
   11.78944492   77.02790070    4.90999985    2.66000009
   11.79250050   78.87590027    4.90999985    2.61999989
   11.79583359   84.06520081    4.90999985    2.64000010
   11.79916668   82.48760223    4.90999985    2.64000010
   11.80222225   75.52410126    4.90999985    2.64000010
   11.80555534   80.71929932    4.90999985    2.66000009
   11.80888939   78.37409973    4.90999985    2.66000009
   11.81194496   80.68489838    4.90999985    2.64000010
   11.81527805   90.30359650    4.90999985    2.64000010
   11.81833363   79.08550262    4.90999985    2.66000009
   11.82166672   77.87020111    4.90999985    2.66000009
   11.82638836   77.87020111    4.90999985    2.66000009
   11.83055592   79.89009857    4.90999985    2.67000008
   11.83361053   86.72229767    4.90999985    2.66000009
   11.83694458   77.60810089    4.90999985    2.66000009
   11.83833313   79.16580200    4.90999985    2.66000009
   11.84055519   78.70510101    4.90999985    2.66000009
   11.84361076   81.37819672    4.90999985    2.66000009
   11.84694386   80.58049774    4.90999985    2.66000009
   11.85027790   78.08630371    4.90999985    2.66000009
   11.85333347   81.39060211    4.90999985    2.64000010
   11.85666752   78.36309814    4.90999985    2.66000009
   11.86000061   77.22470093    4.90999985    2.67000008
   11.86305618   85.87830353    4.90999985    2.66000009
   11.86638927   78.10659790    4.90999985    2.66000009
   11.86972237   83.31749725    4.90999985    2.67000008
   11.87277794   81.64589691    4.90999985    2.66000009
   11.87750053   81.64589691    4.90999985    2.67000008
   11.88166714   87.48780060    4.90999985    2.66000009
   11.88472176   78.63289642    4.90999985    2.67000008
   11.88805580   90.58129883    4.90999985    2.67000008
   11.88861084   84.03130341    4.90999985    2.67000008
   11.89166641   80.21990204    4.90999985    2.69000006
   11.89472198   84.43029785    4.90999985    2.67000008
   11.89805508   84.53089905    4.90999985    2.67000008
   11.90138817   82.91390228    4.90999985    2.66000009
   11.90444374   79.52729797    4.90999985    2.67000008
   11.90777779   81.00170135    4.90999985    2.67000008
   11.91111088   79.28350067    4.90999985    2.66000009
   11.91416645   81.23280334    4.90999985    2.66000009
   11.91750050   85.68910217    4.90999985    2.67000008
   11.92055607   84.22270203    4.90999985    2.67000008
   11.92388916   82.36569977    4.90999985    2.66000009
   11.92861176   82.36569977    4.90999985    2.67000008
   11.93277836   87.33560181    4.90999985    2.66000009
   11.93611145   81.03109741    4.90999985    2.66000009
   11.93861103   78.54260254    4.90999985    2.67000008
   11.93972206   82.44029999    4.90999985    2.67000008
   11.94277763   79.64769745    4.90999985    2.67000008
   11.94611073   74.88020325    4.90999985    2.69000006
   11.94944477   82.51039886    4.90999985    2.67000008
   11.95249939   81.37039948    4.90999985    2.66000009
   11.95583344   78.15820313    4.90999985    2.67000008
   11.95916653   77.71320343    4.90999985    2.69000006
   11.96222210   79.90879822    4.90999985    2.67000008
   11.96555519   77.15579987    4.90999985    2.67000008
   11.96861076   78.52619934    4.90999985    2.69000006
   11.97194386   77.61289978    4.90999985    2.69000006
   11.97527695   81.71600342    4.90999985    2.69000006
   11.97972202   81.71600342    4.90999985    2.67000008
   11.98388958   79.26390076    4.90999985    2.69000006
   11.98722267   78.92960358    4.90999985    2.69000006
   11.98861122   85.00319672    4.90999985    2.69000006
   11.99083328   75.42549896    4.90999985    2.67000008
   11.99388885   80.92680359    4.90999985    2.69000006
   11.99722290   80.71170044    4.90999985    2.69000006
   12.00055599   79.18769836    4.90999985    2.67000008
   12.00361156   78.08000183    4.90999985    2.69000006
   12.00694466   80.19309998    4.90999985    2.69000006
   12.01027775   78.86499786    4.90999985    2.69000006
   12.01333332   77.63960266    4.90999985    2.69000006
   12.01666641   77.46970367    4.90999985    2.69000006
   12.01972198   81.13670349    4.90999985    2.69000006
   12.02305508   74.78980255    4.90999985    2.67000008
   12.02666664   80.71009827    4.90999985    2.69000006
   12.03166676   80.71009827    4.90999985    2.71000004
   12.03583336   79.58779907    4.90999985    2.69000006
   12.04138947   75.06420135    4.90999985    2.69000006
   12.04250050   78.10269928    4.90999985    2.69000006
   12.04583359   80.09750366    4.90999985    2.69000006
   12.04972267   77.11859894    4.90999985    2.69000006
   12.05305576   75.61129761    4.90999985    2.69000006
   12.05777836   74.90540314    4.90999985    2.71000004
   12.06222248   76.35669708    4.90999985    2.71000004
   12.06666660   79.17700195    4.90999985    2.71000004
   12.07055569   76.22699738    4.90999985    2.71000004
   12.07388878   77.43650055    4.90999985    2.71000004
   12.07805538   77.90540314    4.90999985    2.73000002
   12.08277798   77.90540314    4.90999985    2.69000006
   12.08694458   77.66699982    4.90999985    2.71000004
   12.09000015   78.96530151    4.90999985    2.71000004
   12.09083271   76.55549622    4.90999985    2.71000004
   12.09416676   74.76290131    4.90999985    2.71000004
   12.09749985   79.34269714    4.90999985    2.71000004
   12.10055637   79.26840210    4.90999985    2.69000006
   12.10388947   75.54199982    4.90999985    2.71000004
   12.10722256   77.39050293    4.90999985    2.71000004
   12.11055565   79.24490356    4.90999985    2.71000004
   12.11361122   85.79000092    4.90999985    2.71000004
   12.11694431   77.27519989    4.90999985    2.73000002
   12.12055588   76.31369781    4.90999985    2.71000004
   12.12361145   77.27220154    4.90999985    2.73000002
   12.12694454   77.61380005    4.90999985    2.73000002
   12.13388920   77.61380005    4.90999985    2.71000004
   12.13805580   77.32430267    4.90999985    2.71000004
   12.14000034   77.40670013    4.90999985    2.71000004
   12.14166641   75.69869995    4.90999985    2.71000004
   12.14499950   75.50420380    4.90999985    2.73000002
   12.14805508   78.85389709    4.90999985    2.71000004
   12.15138817   76.56610107    4.90999985    2.71000004
   12.15472221   76.10109711    4.90999985    2.73000002
   12.15805531   76.47979736    4.90999985    2.71000004
   12.16138840   77.73410034    4.90999985    2.71000004
   12.16472149   77.00409698    4.90999985    2.71000004
   12.16888905   78.17250061    4.90999985    2.71000004
   12.17305565   76.33660126    4.90999985    2.73000002
   12.17694473   79.11900330    4.90999985    2.71000004
   12.18027782   76.84870148    4.90999985    2.71000004
   12.18472195   76.84870148    4.90999985    2.71000004
   12.18916702   74.82569885    4.90999985    2.73000002
   12.19000053   80.80629730    4.90999985    2.71000004
   12.19305515   77.37509918    4.90999985    2.73000002
   12.19638920   77.76239777    4.90999985    2.71000004
   12.19972229   79.82260132    4.90999985    2.73000002
   12.20333290   76.12629700    4.90999985    2.73000002
   12.20666695   74.83560181    4.90999985    2.73000002
   12.21000004   77.93080139    4.90999985    2.73000002
   12.21333313   74.30639648    4.90999985    2.73000002
   12.21666622   76.58059692    4.90999985    2.73000002
   12.21999931   74.08719635    4.90999985    2.73000002
   12.22333336   75.39869690    4.90999985    2.75000000
   12.22638798   80.00350189    4.90999985    2.75000000
   12.22972202   79.91829681    4.90999985    2.73000002
   12.23611164   79.91829681    4.90999985    2.75000000
   12.24027824   76.45240021    4.90999985    2.75000000
   12.24388885   76.58889771    4.90999985    2.75000000
   12.24722290   79.20110321    4.90999985    2.75000000
   12.25055599   74.98570251    4.90999985    2.75000000
   12.25388908   76.82289886    4.90999985    2.75000000
   12.25722218   77.68399811    4.90999985    2.75000000
   12.26083374   76.25260162    4.90999985    2.73000002
   12.26416683   73.91670227    4.90999985    2.75000000
   12.26749992   73.33370209    4.90999985    2.75000000
   12.27083302   75.19249725    4.90999985    2.75000000
   12.27416611   78.61620331    4.90999985    2.75000000
   12.27750015   78.18669891    4.90999985    2.75000000
   12.28083324   79.49089813    4.90999985    2.75000000
   12.28750038   79.49089813    4.90999985    2.73000002
   12.29166698   82.92549896    4.90999985    2.75000000
   12.29500008   76.31079865    4.90999985    2.75000000
   12.29833412   77.09510040    4.90999985    2.75000000
   12.30166721   83.80829620    4.90999985    2.75000000
   12.30527782   75.79570007    4.90999985    2.75000000
   12.30833340   78.20619965    4.90999985    2.76999998
   12.31166649   83.23229980    4.90999985    2.75000000
   12.31500053   77.49060059    4.90999985    2.75000000
   12.31805515   78.00810242    4.90999985    2.76999998
   12.32138920   72.32140350    4.90999985    2.75000000
   12.32472229   74.12799835    4.90999985    2.76999998
   12.32805538   74.72869873    4.90999985    2.75000000
   12.33138847   75.13089752    4.90999985    2.75000000
   12.33444405   76.57160187    4.90999985    2.76999998
   12.33861065   76.57160187    4.90999985    2.75000000
   12.34277725   78.96659851    4.90999985    2.75000000
   12.34611034   76.46820068    4.90999985    2.75000000
   12.34916592   76.59709930    4.90999985    2.73000002
   12.35249996   76.41359711    4.90999985    2.75000000
   12.35583401   75.15360260    4.90999985    2.76999998
   12.35916710   83.42990112    4.90999985    2.76999998
   12.36305618   79.51599884    4.90999985    2.76999998
   12.36638927   78.11710358    4.90999985    2.76999998
   12.36944485   78.19629669    4.90999985    2.76999998
   12.37277794   78.89969635    4.90999985    2.76999998
   12.37611103   79.78079987    4.90999985    2.76999998
   12.37916660   76.51319885    4.90999985    2.76999998
   12.38249969   84.33860016    4.90999985    2.76999998
   12.38583279   85.43009949    4.90999985    2.76999998
   12.40638828   79.56659698    4.90999985    2.78999996
   12.40694427   81.01080322    4.90999985    2.78999996
   12.41027737   75.33039856    4.90999985    2.78999996
   12.41361046   78.22640228    4.90999985    2.76999998
   12.41694450   78.16220093    4.90999985    2.78999996
   12.42027855   81.99690247    4.90999985    2.76999998
   12.42361164   81.57980347    4.90999985    2.76999998
   12.42694473   79.57759857    4.90999985    2.78999996
   12.43000031   80.45800018    4.90999985    2.76999998
   12.43333340   75.03820038    4.90999985    2.78999996
   12.43666649   76.01380157    4.90999985    2.78999996
   12.44138908   76.01380157    4.90999985    2.78999996
   12.44555569   77.07640076    4.90999985    2.76999998
   12.44888878   80.95159912    4.90999985    2.78999996
   12.45194435   79.75219727    4.90999985    2.76999998
   12.45527744   79.97779846    4.90999985    2.75000000
   12.45611095   76.90769958    4.90999985    2.76999998
   12.45916653   76.64240265    4.90999985    2.78999996
   12.46249962   78.47709656    4.90999985    2.78999996
   12.46555519   79.83840179    4.90999985    2.76999998
   12.46916580   84.11109924    4.90999985    2.78999996
   12.47222137   78.51650238    4.90999985    2.76999998
   12.47583294   77.26349640    4.90999985    2.76999998
   12.47916603   75.45590210    4.90999985    2.76999998
   12.48249912   75.14749908    4.90999985    2.76999998
   12.48583317   80.41850281    4.90999985    2.78999996
   12.49277782   80.41850281    4.90999985    2.78999996
   12.49694443   74.52469635    4.90999985    2.78999996
   12.50027752   76.08789825    4.90999985    2.78999996
   12.50333309   74.37830353    4.90999985    2.76999998
   12.50638866   75.56909943    4.90999985    2.76999998
   12.50749969   75.98280334    4.90999985    2.78999996
   12.51055527   76.06590271    4.90999985    2.76999998
   12.51388931   75.97779846    4.90999985    2.78999996
   12.51694393   75.69159698    4.90999985    2.78999996
   12.52027798   74.17919922    4.90999985    2.80999994
   12.52361107   76.31330109    4.90999985    2.78999996
   12.52694416   72.63189697    4.90999985    2.76999998
   12.53027725   77.30159760    4.90999985    2.78999996
   12.53333378   78.90850067    4.90999985    2.78999996
   12.53666687   76.18910217    4.90999985    2.78999996
   12.54361153   76.18910217    4.90999985    2.78999996
   12.54805565   77.13549805    4.90999985    2.78999996
   12.55138874   75.12609863    4.90999985    2.78999996
   12.55472279   73.74130249    4.90999985    2.76999998
   12.55611134   73.39119720    4.90999985    2.78999996
   12.55861092   73.41739655    4.90999985    2.80999994
   12.56194496   77.83889771    4.90999985    2.78999996
   12.56666660   76.64140320    4.90999985    2.80999994
   12.57083321   76.58989716    4.90999985    2.80999994
   12.57583332   71.30660248    4.90999985    2.80999994
   12.58027744   75.36789703    4.90999985    2.80999994
   12.58555508   76.45069885    4.90999985    2.80999994
   12.58916664   78.18370056    4.90999985    2.82999992
   12.59472179   78.18370056    4.90999985    2.80999994
   12.59916592   77.27059937    4.90999985    2.78999996
   12.60249996   76.10590363    4.90999985    2.78999996
   12.60555553   77.91089630    4.90999985    2.80999994
   12.60638905   75.21839905    4.90999985    2.80999994
   12.60944462   76.66300201    4.90999985    2.80999994
   12.61277771   78.11000061    4.90999985    2.80999994
   12.61638927   75.68930054    4.90999985    2.80999994
   12.62111092   74.54299927    4.90999985    2.78999996
   12.62444496   73.99720001    4.90999985    2.80999994
   12.62777805   81.57530212    4.90999985    2.80999994
   12.63083363   78.30449677    4.90999985    2.80999994
   12.63416672   74.84719849    4.90999985    2.80999994
   12.63749981   73.99690247    4.90999985    2.80999994
   12.64083290   77.27149963    4.90999985    2.82999992
   12.64611053   77.27149963    4.90999985    2.80999994
   12.65027714   76.42530060    4.90999985    2.80999994
   12.65361118   80.83969879    4.90999985    2.80999994
   12.65666676   74.13400269    4.90999985    2.80999994
   12.65749931   78.31430054    4.90999985    2.80999994
   12.66083336   74.78160095    4.90999985    2.82999992
   12.66388893   73.74680328    4.90999985    2.80999994
   12.66722298   78.13330078    4.90999985    2.80999994
   12.67111111   74.70510101    4.90999985    2.80999994
   12.67416668   76.54139709    4.90999985    2.80999994
   12.67750072   76.65769958    4.90999985    2.80999994
   12.68083382   81.11660004    4.90999985    2.80999994
   12.68416691   73.06580353    4.90999985    2.80999994
   12.68805599   76.24310303    4.90999985    2.80999994
   12.69138908   74.62580109    4.90999985    2.80999994
   12.69805527   74.62580109    4.90999985    2.80999994
   12.70277786   74.99189758    4.90999985    2.78999996
   12.70638847   73.81340027    4.90999985    2.80999994
   12.70749950   74.70559692    4.90999985    2.80999994
   12.71083355   75.08540344    4.90999985    2.80999994
   12.71416664   76.48000336    4.90999985    2.80999994
   12.71777725   74.37480164    4.90999985    2.82999992
   12.72138882   74.80229950    4.90999985    2.80999994
   12.72472191   76.15670013    4.90999985    2.82999992
   12.72861099   75.66010284    4.90999985    2.80999994
   12.73222160   77.13120270    4.90999985    2.80999994
   12.73555565   77.54060364    4.90999985    2.82999992
   12.73888874   77.88249969    4.90999985    2.80999994
   12.74277782   81.22709656    4.90999985    2.80999994
   12.74861145   81.22709656    4.90999985    2.80999994
   12.75305557   78.15560150    4.90999985    2.80999994
   12.75638866   79.43479919    4.90999985    2.82999992
   12.75749969   73.92769623    4.90999985    2.82999992
   12.76055527   75.09889984    4.90999985    2.80999994
   12.76444435   74.79479980    4.90999985    2.82999992
   12.76749992   77.70929718    4.90999985    2.80999994
   12.77083302   73.22229767    4.90999985    2.80999994
   12.77444458   77.13150024    4.90999985    2.80999994
   12.77777767   74.94419861    4.90999985    2.80999994
   12.78111076   80.28320313    4.90999985    2.80999994
   12.78472233   79.74150085    4.90999985    2.80999994
   12.78777790   73.32569885    4.90999985    2.82999992
   12.79111195   75.46890259    4.90999985    2.82999992
   12.79444504   74.46589661    4.90999985    2.82999992
   12.79972267   74.46589661    4.90999985    2.82999992
   12.80416679   74.02709961    4.90999985    2.80999994
   12.80749989   79.08270264    4.90999985    2.82999992
   12.80833340   75.53829956    4.90999985    2.80999994
   12.81166649   76.56670380    4.90999985    2.82999992
   12.81500053   78.61280060    4.90999985    2.80999994
   12.81833363   72.67130280    4.90999985    2.82999992
   12.82166672   76.39170074    4.90999985    2.82999992
   12.82472229   79.95210266    4.90999985    2.82999992
   12.82805538   78.21070099    4.90999985    2.82999992
   12.83138847   74.93160248    4.90999985    2.82999992
   12.83472157   72.89499664    4.90999985    2.84999990
   12.83805561   77.43630219    4.90999985    2.84999990
   12.84138870   73.47350311    4.90999985    2.82999992
   12.84499931   75.56289673    4.90999985    2.82999992
   12.85138893   75.56289673    4.90999985    2.82999992
   12.85611153   77.55599976    4.90999985    2.82999992
   12.85777855   73.99629974    4.90999985    2.82999992
   12.86083412   76.80590057    4.90999985    2.84999990
   12.86444473   77.88890076    4.90999985    2.82999992
   12.86777782   78.23410034    4.90999985    2.82999992
   12.87111092   76.39099884    4.90999985    2.80999994
   12.87472248   76.23829651    4.90999985    2.84999990
   12.87805557   74.74859619    4.90999985    2.84999990
   12.88166714   80.64640045    4.90999985    2.82999992
   12.88500023   79.46179962    4.90999985    2.82999992
   12.88833332   75.76909637    4.90999985    2.84999990
   12.89194393   75.51159668    4.90999985    2.82999992
   12.89527798   73.20960236    4.90999985    2.84999990
   12.89888859   76.56800079    4.90999985    2.82999992
   12.90444374   76.56800079    4.90999985    2.84999990
   12.90861034   76.24880219    4.90999985    2.82999992
   12.91194439   73.38330078    4.90999985    2.84999990
   12.91499996   75.48339844    4.90999985    2.82999992
   12.91833401   76.76090240    4.90999985    2.82999992
   12.92166710   76.22579956    4.90999985    2.82999992
   12.92500019   77.38899994    4.90999985    2.84999990
   12.92833328   81.32009888    4.90999985    2.84999990
   12.93166733   77.64050293    4.90999985    2.82999992
   12.93500042   76.73370361    4.90999985    2.82999992
   12.93805599   79.04789734    4.90999985    2.82999992
   12.94138908   74.16359711    4.90999985    2.84999990
   12.94527817   75.48650360    4.90999985    2.84999990
   12.94888878   75.03949738    4.90999985    2.84999990
   12.95527744   75.03949738    4.90999985    2.84999990
   12.96000004   76.01110077    4.90999985    2.84999990
   12.96361065   77.82640076    4.90999985    2.86999989
   12.96722221   75.42269897    4.90999985    2.84999990
   12.97083282   77.30500031    4.90999985    2.84999990
   12.97472191   76.71679688    4.90999985    2.84999990
   12.97833252   77.55329895    4.90999985    2.84999990
   12.98194408   75.22910309    4.90999985    2.84999990
   12.98527813   80.39129639    4.90999985    2.84999990
   12.98916721   77.99720001    4.90999985    2.84999990
   12.99305534   77.55770111    4.90999985    2.84999990
   12.99694443   77.81500244    4.90999985    2.84999990
   13.00083351   73.16799927    4.90999985    2.84999990
   13.00583363   73.16799927    4.90999985    2.84999990
   13.01027775   78.86569977    4.90999985    2.84999990
   13.01416683   75.84249878    4.90999985    2.82999992
   13.01805496   75.81539917    4.90999985    2.82999992
   13.02194405   75.34670258    4.90999985    2.82999992
   13.02555561   77.36499786    4.90999985    2.82999992
   13.02916622   75.10109711    4.90999985    2.82999992
   13.03249931   75.44059753    4.90999985    2.84999990
   13.03638935   73.79579926    4.90999985    2.84999990
   13.04027843   78.40049744    4.90999985    2.84999990
   13.04416752   75.64309692    4.90999985    2.84999990
   13.04777813   79.04149628    4.90999985    2.84999990
   13.05138874   78.62429810    4.90999985    2.84999990
   13.05749989   78.62429810    4.90999985    2.84999990
   13.06222248   75.37429810    4.90999985    2.84999990
   13.06583309   73.42160034    4.90999985    2.86999989
   13.06944466   73.66329956    4.90999985    2.86999989
   13.07333374   76.00260162    4.90999985    2.86999989
   13.07694435   74.21990204    4.90999985    2.86999989
   13.08055592   76.61879730    4.90999985    2.86999989
   13.08416653   73.67179871    4.90999985    2.86999989
   13.08749962   75.24610138    4.90999985    2.86999989
   13.09111118   75.30169678    4.90999985    2.84999990
   13.09472179   74.04789734    4.90999985    2.86999989
   13.09833336   75.73500061    4.90999985    2.84999990
   13.10222244   74.73889923    4.90999985    2.86999989
   13.10888958   74.73889923    4.90999985    2.86999989
   13.11361122   75.87770081    4.90999985    2.86999989
   13.11750031   73.96479797    4.90999985    2.86999989
   13.12111092   74.28399658    4.90999985    2.86999989
   13.12472248   73.56089783    4.90999985    2.84999990
   13.12861156   79.16699982    4.90999985    2.84999990
   13.13249969   75.02600098    4.90999985    2.86999989
   13.13666630   75.79329681    4.90999985    2.86999989
   13.14027786   79.87490082    4.90999985    2.86999989
   13.14388847   74.65380096    4.90999985    2.86999989
   13.14722252   75.20320129    4.90999985    2.86999989
   13.15083313   75.81819916    4.90999985    2.86999989
   13.15472221   74.33180237    4.90999985    2.86999989
   13.16138840   74.33180237    4.90999985    2.84999990
   13.16666698   74.26059723    4.90999985    2.86999989
   13.17027855   73.65139771    4.90999985    2.86999989
   13.17388916   73.69059753    4.90999985    2.86999989
   13.17750072   71.68389893    4.90999985    2.86999989
   13.18111134   79.11789703    4.90999985    2.86999989
   13.18583298   75.87359619    4.90999985    2.84999990
   13.18972206   73.28690338    4.90999985    2.86999989
   13.19361115   72.79869843    4.90999985    2.84999990
   13.19750023   75.62509918    4.90999985    2.86999989
   13.20111084   79.92479706    4.90999985    2.86999989
   13.20527744   76.08309937    4.90999985    2.86999989
   13.21083355   76.08309937    4.90999985    2.86999989
   13.21611118   74.49849701    4.90999985    2.86999989
   13.22083282   75.80670166    4.90999985    2.86999989
   13.22416592   74.41699982    4.90999985    2.89000010
   13.22972202   75.70030212    4.90999985    2.86999989
   13.23527813   76.34670258    4.90999985    2.86999989
   13.24083328   75.97019958    4.90999985    2.84999990
   13.24583340   72.93190002    4.90999985    2.89000010
   13.25194454   72.58920288    4.90999985    2.84999990
   13.25638866   72.37680054    4.90999985    2.86999989
   13.26000023   72.57219696    4.90999985    2.84999990
   13.26583290   72.57219696    4.90999985    2.86999989
   13.27027798   73.92289734    4.90999985    2.86999989
   13.27388859   74.59200287    4.90999985    2.86999989
   13.27750015   76.20400238    4.90999985    2.86999989
   13.28083324   75.77500153    4.90999985    2.86999989
   13.28444481   74.05919647    4.90999985    2.84999990
   13.28777790   73.32379913    4.90999985    2.86999989
   13.29111195   77.03919983    4.90999985    2.86999989
   13.29444504   76.08999634    4.90999985    2.86999989
   13.29777813   75.37650299    4.90999985    2.86999989
   13.30111122   76.99420166    4.90999985    2.86999989
   13.30416679   75.54779816    4.90999985    2.86999989
   13.30749989   74.68530273    4.90999985    2.86999989
   13.31055546   72.11620331    4.90999985    2.89000010
   13.31555557   72.11620331    4.90999985    2.86999989
   13.31972218   73.16560364    4.90999985    2.89000010
   13.32277775   76.19450378    4.90999985    2.86999989
   13.32611084   70.98059845    4.90999985    2.89000010
   13.32916641   75.91459656    4.90999985    2.89000010
   13.33249950   74.27490234    4.90999985    2.86999989
   13.33583260   73.89209747    4.90999985    2.86999989
   13.33888817   75.45539856    4.90999985    2.89000010
   13.34222221   74.88690186    4.90999985    2.86999989
   13.34555531   73.14250183    4.90999985    2.89000010
   13.34861088   74.93360138    4.90999985    2.89000010
   13.35194492   73.41400146    4.90999985    2.91000009
   13.35527802   74.40779877    4.90999985    2.86999989
   13.35833359   73.42530060    4.90999985    2.89000010
   13.36166668   73.21130371    4.90999985    2.89000010
   13.36666679   73.21130371    4.90999985    2.86999989
   13.37083340   75.45130157    4.90999985    2.89000010
   13.37388897   75.13749695    4.90999985    2.89000010
   13.37722206   73.91549683    4.90999985    2.86999989
   13.38055611   77.08139801    4.90999985    2.89000010
   13.38361073   71.90859985    4.90999985    2.86999989
   13.38694477   74.53189850    4.90999985    2.86999989
   13.39000034   72.28279877    4.90999985    2.86999989
   13.39333344   73.23210144    4.90999985    2.86999989
   13.39666653   73.68370056    4.90999985    2.86999989
   13.39972210   74.74169922    4.90999985    2.89000010
   13.40305519   75.54579926    4.90999985    2.86999989
   13.40638828   75.75209808    4.90999985    2.86999989
   13.42722225   75.75209808    4.90999985    2.89000010
   13.43111134   74.45929718    4.90999985    2.89000010
   13.43444443   75.20780182    4.90999985    2.89000010
   13.43777752   73.99019623    4.90999985    2.89000010
   13.44083309   76.40049744    4.90999985    2.91000009
   13.44416714   77.24199677    4.90999985    2.89000010
   13.44722271   75.42130280    4.90999985    2.91000009
   13.45055580   75.05180359    4.90999985    2.91000009
   13.45388889   73.30400085    4.90999985    2.91000009
   13.45694447   75.28289795    4.90999985    2.91000009
   13.46027756   75.21839905    4.90999985    2.91000009
   13.46361065   76.72949982    4.90999985    2.89000010
   13.46666622   74.77480316    4.90999985    2.91000009
   13.46999931   74.78589630    4.90999985    2.89000010
   13.47305489   71.68150330    4.90999985    2.91000009
   13.47444439   77.42590332    4.90999985    2.91000009
   13.47861099   77.42590332    4.90999985    2.89000010
   13.48277760   79.50129700    4.90999985    2.89000010
   13.48611164   73.47660065    4.90999985    2.91000009
   13.48916721   74.71299744    4.90999985    2.89000010
   13.49250031   76.88120270    4.90999985    2.89000010
   13.49583340   78.40499878    4.90999985    2.91000009
   13.49888897   76.32949829    4.90999985    2.89000010
   13.50222206   73.40100098    4.90999985    2.89000010
   13.50555515   74.80220032    4.90999985    2.91000009
   13.50861073   74.35050201    4.90999985    2.89000010
   13.51194477   74.94899750    4.90999985    2.91000009
   13.51500034   77.20529938    4.90999985    2.89000010
   13.51833344   81.70069885    4.90999985    2.89000010
   13.52166653   74.76830292    4.90999985    2.91000009
   13.52444458   75.04730225    4.90999985    2.91000009
   13.52527714   75.00720215    4.90999985    2.89000010
   13.52999973   75.00720215    4.90999985    2.91000009
   13.53388977   75.31639862    4.90999985    2.89000010
   13.53722286   77.53130341    4.90999985    2.89000010
   13.54055595   75.23139954    4.90999985    2.89000010
   13.54361153   73.40720367    4.90999985    2.89000010
   13.54694462   76.13410187    4.90999985    2.89000010
   13.55027771   73.35500336    4.90999985    2.89000010
   13.55333328   72.44740295    4.90999985    2.86999989
   13.55666733   72.90019989    4.90999985    2.91000009
   13.55972195   73.92089844    4.90999985    2.91000009
   13.56305599   73.82330322    4.90999985    2.91000009
   13.56638908   80.09290314    4.90999985    2.89000010
   13.56944466   76.90640259    4.90999985    2.89000010
   13.57277775   74.02790070    4.90999985    2.91000009
   13.57444477   75.69339752    4.90999985    2.89000010
   13.57638836   75.89330292    4.90999985    2.89000010
   13.58111095   75.89330292    4.90999985    2.89000010
   13.58527756   74.77790070    4.90999985    2.89000010
   13.58833313   75.50980377    4.90999985    2.89000010
   13.59166622   74.38749695    4.90999985    2.91000009
   13.59499931   75.53520203    4.90999985    2.91000009
   13.59805489   70.07099915    4.90999985    2.91000009
   13.60138893   74.86710358    4.90999985    2.91000009
   13.60444450   76.27339935    4.90999985    2.89000010
   13.60777855   72.18170166    4.90999985    2.91000009
   13.61111164   73.31510162    4.90999985    2.91000009
   13.61416721   74.74859619    4.90999985    2.91000009
   13.61750031   74.45919800    4.90999985    2.91000009
   13.62083340   75.14700317    4.90999985    2.93000007
   13.62388897   72.93289948    4.90999985    2.91000009
   13.62472248   73.30059814    4.90999985    2.91000009
   13.62750053   72.83529663    4.90999985    2.94000006
   13.63222218   72.83529663    4.90999985    2.93000007
   13.63638878   74.91940308    4.90999985    2.91000009
   13.63972187   75.37830353    4.90999985    2.89000010
   13.64277744   74.24140167    4.90999985    2.91000009
   13.64611053   77.31549835    4.90999985    2.91000009
   13.64916611   74.74109650    4.90999985    2.91000009
   13.65249920   72.68379974    4.90999985    2.91000009
   13.65583324   76.91290283    4.90999985    2.91000009
   13.65888882   73.60430145    4.90999985    2.91000009
   13.66222191   73.37909698    4.90999985    2.93000007
   13.66555500   75.22889709    4.90999985    2.93000007
   13.66861153   74.32689667    4.90999985    2.89000010
   13.67194462   76.57099915    4.90999985    2.91000009
   13.67472267   73.20719910    4.90999985    2.93000007
   13.67555618   75.42019653    4.90999985    2.89000010
   13.67888927   74.40750122    4.90999985    2.91000009
   13.68333340   74.40750122    4.90999985    2.91000009
   13.68750000   72.50530243    4.90999985    2.91000009
   13.69083309   74.16729736    4.90999985    2.91000009
   13.69388866   73.52670288    4.90999985    2.91000009
   13.69722271   74.42479706    4.90999985    2.93000007
   13.70055580   71.93730164    4.90999985    2.91000009
   13.70361137   74.15989685    4.90999985    2.93000007
   13.70694447   73.37100220    4.90999985    2.93000007
   13.71027756   75.43199921    4.90999985    2.91000009
   13.71333313   72.40149689    4.90999985    2.91000009
   13.71666622   75.68470001    4.90999985    2.91000009
   13.71972179   76.44519806    4.90999985    2.91000009
   13.72305489   77.37090302    4.90999985    2.91000009
   13.72472191   74.06189728    4.90999985    2.91000009
   13.72666645   77.65339661    4.90999985    2.91000009
   13.72999954   73.26439667    4.90999985    2.93000007
   13.73472214   73.26439667    4.90999985    2.91000009
   13.73861122   73.88929749    4.90999985    2.91000009
   13.74194431   75.71130371    4.90999985    2.91000009
   13.74527836   76.88770294    4.90999985    2.89000010
   13.74833393   75.37470245    4.90999985    2.91000009
   13.75166702   78.79309845    4.90999985    2.91000009
   13.75500011   79.76149750    4.90999985    2.91000009
   13.75805569   73.58640289    4.90999985    2.91000009
   13.76138878   77.55139923    4.90999985    2.93000007
   13.76444435   75.73300171    4.90999985    2.91000009
   13.76777744   73.90070343    4.90999985    2.91000009
   13.77111053   73.32790375    4.90999985    2.93000007
   13.77416611   74.70770264    4.90999985    2.91000009
   13.77472210   74.90209961    4.90999985    2.93000007
   13.77805519   72.81829834    4.90999985    2.93000007
   13.78138828   75.16979980    4.90999985    2.91000009
   13.78583336   75.16979980    4.90999985    2.93000007
   13.79000092   72.73380280    4.90999985    2.93000007
   13.79305553   78.25119781    4.90999985    2.93000007
   13.79638958   74.56369781    4.90999985    2.91000009
   13.79972267   76.29750061    4.90999985    2.93000007
   13.80277824   77.15329742    4.90999985    2.93000007
   13.80611134   72.92189789    4.90999985    2.94000006
   13.80916691   74.80210114    4.90999985    2.93000007
   13.81250000   73.43689728    4.90999985    2.93000007
   13.81583309   73.28359985    4.90999985    2.93000007
   13.81888866   74.57060242    4.90999985    2.93000007
   13.82222176   74.29180145    4.90999985    2.91000009
   13.82472229   72.26850128    4.90999985    2.91000009
   13.82583332   72.52010345    4.90999985    2.91000009
   13.82916641   73.41210175    4.90999985    2.93000007
   13.83222198   74.76599884    4.90999985    2.93000007
   13.83694458   74.76599884    4.90999985    2.91000009
   13.84111118   72.15299988    4.90999985    2.93000007
   13.84416676   72.08049774    4.90999985    2.93000007
   13.84749985   72.19059753    4.90999985    2.93000007
   13.85083389   72.17649841    4.90999985    2.93000007
   13.85388947   74.29109955    4.90999985    2.93000007
   13.85722256   75.08059692    4.90999985    2.93000007
   13.86055565   73.38860321    4.90999985    2.91000009
   13.86361122   74.80699921    4.90999985    2.91000009
   13.86694431   73.09089661    4.90999985    2.91000009
   13.87027836   78.09519958    4.90999985    2.93000007
   13.87333393   71.98699951    4.90999985    2.93000007
   13.87472248   73.22319794    4.90999985    2.93000007
   13.87694454   73.29699707    4.90999985    2.93000007
   13.88027763   75.74839783    4.90999985    2.93000007
   13.88333321   75.93689728    4.90999985    2.93000007
   13.88805580   75.93689728    4.90999985    2.93000007
   13.89222240   72.64170074    4.90999985    2.91000009
   13.89555550   72.96260071    4.90999985    2.91000009
   13.89861107   74.22519684    4.90999985    2.91000009
   13.90194416   77.72049713    4.90999985    2.91000009
   13.90527725   75.63580322    4.90999985    2.93000007
   13.90833282   79.12740326    4.90999985    2.91000009
   13.91166592   73.32350159    4.90999985    2.93000007
   13.91499996   76.38649750    4.90999985    2.93000007
   13.91805553   74.02570343    4.90999985    2.91000009
   13.92138958   75.91600037    4.90999985    2.91000009
   13.92444515   78.43470001    4.90999985    2.93000007
   13.92500019   75.99780273    4.90999985    2.93000007
   13.92833328   70.85520172    4.90999985    2.91000009
   13.93166733   73.22850037    4.90999985    2.93000007
   13.93472195   73.16220093    4.90999985    2.93000007
   13.93944454   73.16220093    4.90999985    2.93000007
   13.94333363   74.13480377    4.90999985    2.93000007
   13.94666672   76.84329987    4.90999985    2.94000006
   13.94999981   75.76599884    4.90999985    2.91000009
   13.95305538   74.65229797    4.90999985    2.91000009
   13.95638847   72.87709808    4.90999985    2.93000007
   13.95944405   74.54280090    4.90999985    2.93000007
   13.96277714   73.94349670    4.90999985    2.93000007
   13.96611118   73.99320221    4.90999985    2.93000007
   13.96916580   73.70149994    4.90999985    2.91000009
   13.97249985   75.23130035    4.90999985    2.91000009
   13.97499943   77.03019714    4.90999985    2.93000007
   13.97611046   75.72180176    4.90999985    2.93000007
   13.97944355   76.79709625    4.90999985    2.94000006
   13.98249912   74.51899719    4.90999985    2.93000007
   13.98583317   72.96250153    4.90999985    2.93000007
   13.99055576   72.96250153    4.90999985    2.93000007
   13.99472237   74.06510162    4.90999985    2.93000007
   13.99777794   74.27850342    4.90999985    2.93000007
   14.00111103   75.64620209    4.90999985    2.91000009
   14.00444412   73.04519653    4.90999985    2.93000007
   14.00749969   74.19619751    4.90999985    2.93000007
   14.01083374   77.54309845    4.90999985    2.91000009
   14.01416683   72.84269714    4.90999985    2.93000007
   14.01722240   74.89849854    4.90999985    2.93000007
   14.02055550   76.33249664    4.90999985    2.93000007
   14.02361107   77.43569946    4.90999985    2.93000007
   14.02527714   75.81980133    4.90999985    2.93000007
   14.02750015   74.87830353    4.90999985    2.93000007
   14.03055573   74.44619751    4.90999985    2.91000009
   14.03388977   74.04669952    4.90999985    2.93000007
   14.03694534   72.29850006    4.90999985    2.93000007
   14.04166698   72.29850006    4.90999985    2.93000007
   14.04583359   72.38839722    4.90999985    2.93000007
   14.04888916   75.21050262    4.90999985    2.94000006
   14.05222225   73.98609924    4.90999985    2.93000007
   14.05555534   77.56130219    4.90999985    2.93000007
   14.05861092   71.20700073    4.90999985    2.93000007
   14.06194496   73.54209900    4.90999985    2.93000007
   14.06527805   72.27459717    4.90999985    2.93000007
   14.06833363   73.71920013    4.90999985    2.93000007
   14.07166672   73.48049927    4.90999985    2.94000006
   14.07472229   72.80850220    4.90999985    2.93000007
   14.07527733   72.68699646    4.90999985    2.93000007
   14.07861137   74.91339874    4.90999985    2.94000006
   14.08194447   73.90070343    4.90999985    2.94000006
   14.08500004   72.69349670    4.90999985    2.94000006
   14.08833313   75.67579651    4.90999985    2.93000007
   14.09277725   75.67579651    4.90999985    2.93000007
   14.09694386   74.76290131    4.90999985    2.93000007
   14.19916630   -1.00000000   -1.00000000   -1.00000000
   14.33472157   -1.00000000   -1.00000000   -1.00000000
   14.57527733   -1.00000000   -1.00000000   -1.00000000
   14.74611092   61.83909988    4.90999985    2.94000006
   14.74944496   76.16470337    4.90999985    2.94000006
   14.75249958   74.28009796    4.90999985    2.94000006
   14.75583363   77.90299988    4.90999985    2.94000006
   14.75916672   73.65720367    4.90999985    2.96000004
   14.76222229   74.73079681    4.90999985    2.94000006
   14.76555538   75.52700043    4.90999985    2.94000006
   14.76861095   79.68659973    4.90999985    2.94000006
   14.77472210   79.68659973    4.90999985    2.94000006
   14.77888870   77.55220032    4.90999985    2.94000006
   14.78222179   74.89469910    4.90999985    2.96000004
   14.78527832   76.32340240    4.90999985    2.94000006
   14.78861141   73.28829956    4.90999985    2.94000006
   14.79166698   74.08699799    4.90999985    2.94000006
   14.79500008   75.25540161    4.90999985    2.96000004
   14.79611111   77.75569916    4.90999985    2.94000006
   14.79861164   71.20040131    4.90999985    2.94000006
   14.80166721   74.17369843    4.90999985    2.94000006
   14.80500031   73.91249847    4.90999985    2.94000006
   14.80833340   73.91239929    4.90999985    2.94000006
   14.81138897   75.58249664    4.90999985    2.94000006
   14.81472206   72.42130280    4.90999985    2.94000006
   14.81777763   74.90160370    4.90999985    2.96000004
   14.82111073   72.98269653    4.90999985    2.96000004
   14.82583332   72.98269653    4.90999985    2.94000006
   14.82999992   75.99819946    4.90999985    2.94000006
   14.83333302   76.03790283    4.90999985    2.96000004
   14.83638859   76.73040009    4.90999985    2.96000004
   14.83972168   73.79530334    4.90999985    2.94000006
   14.84305477   76.70680237    4.90999985    2.96000004
   14.84611034   72.05819702    4.90999985    2.96000004
   14.84666634   73.34049988    4.90999985    2.94000006
   14.84972191   74.24330139    4.90999985    2.94000006
   14.85305595   75.07489777    4.90999985    2.94000006
   14.85638905   76.93190002    4.90999985    2.96000004
   14.85944462   71.66790009    4.90999985    2.96000004
   14.86277771   72.67739868    4.90999985    2.94000006
   14.86611176   71.61799622    4.90999985    2.96000004
   14.86916637   75.24379730    4.90999985    2.96000004
   14.87250042   75.23069763    4.90999985    2.96000004
   14.87722206   75.23069763    4.90999985    2.96000004
   14.88111115   76.89140320    4.90999985    2.96000004
   14.88444424   73.34390259    4.90999985    2.96000004
   14.88777733   75.23750305    4.90999985    2.96000004
   14.89083290   74.77400208    4.90999985    2.96000004
   14.89416695   75.09580231    4.90999985    2.96000004
   14.89611053   76.51229858    4.90999985    2.96000004
   14.89777756   72.57150269    4.90999985    2.94000006
   14.90083313   76.87719727    4.90999985    2.96000004
   14.90416622   73.79889679    4.90999985    2.94000006
   14.90749931   72.96640015    4.90999985    2.94000006
   14.91055489   72.77480316    4.90999985    2.94000006
   14.91388893   75.87629700    4.90999985    2.96000004
   14.91722298   72.51000214    4.90999985    2.96000004
   14.92027855   74.69159698    4.90999985    2.96000004
   14.92361164   76.77459717    4.90999985    2.96000004
   14.92833328   76.77459717    4.90999985    2.96000004
   14.93249989   73.30629730    4.90999985    2.96000004
   14.93555546   73.75219727    4.90999985    2.96000004
   14.93888855   74.71170044    4.90999985    2.96000004
   14.94222260   73.44580078    4.90999985    2.96000004
   14.94527817   73.33319855    4.90999985    2.96000004
   14.94611073   72.34439850    4.90999985    2.96000004
   14.94888878   73.21710205    4.90999985    2.96000004
   14.95222187   71.55760193    4.90999985    2.96000004
   14.95527744   71.85959625    4.90999985    2.94000006
   14.95861053   72.52780151    4.90999985    2.94000006
   14.96166611   72.27200317    4.90999985    2.96000004
   14.96500015   76.53119659    4.90999985    2.96000004
   14.96833324   74.69609833    4.90999985    2.96000004
   14.97138882   75.14270020    4.90999985    2.96000004
   14.97472191   72.71929932    4.90999985    2.96000004
   14.97944355   72.71929932    4.90999985    2.96000004
   14.98361111   75.06909943    4.90999985    2.96000004
   14.98694515   75.85959625    4.90999985    2.96000004
   14.99000072   72.85959625    4.90999985    2.96000004
   14.99333382   72.32299805    4.90999985    2.96000004
   14.99611092   73.61530304    4.90999985    2.98000002
   14.99694443   74.82929993    4.90999985    2.98000002
   15.00027752   73.69799805    4.90999985    2.96000004
   15.00333309   74.48090363    4.90999985    2.96000004
   15.00666714   72.58809662    4.90999985    2.96000004
   15.00972176   76.17700195    4.90999985    2.96000004
   15.01305580   75.41339874    4.90999985    2.96000004
   15.01638889   75.39579773    4.90999985    2.98000002
   15.01944447   75.49530029    4.90999985    2.96000004
   15.02277756   77.90599823    4.90999985    2.96000004
   15.02611065   72.64679718    4.90999985    2.96000004
   15.03055573   72.64679718    4.90999985    2.98000002
   15.03472233   72.87920380    4.90999985    2.96000004
   15.03805637   72.80860138    4.90999985    2.96000004
   15.04111195   74.43599701    4.90999985    2.96000004
   15.04444504   75.01770020    4.90999985    2.96000004
   15.04611111   74.23770142    4.90999985    2.96000004
   15.04805565   75.63330078    4.90999985    2.96000004
   15.05138874   76.53350067    4.90999985    2.96000004
   15.05444431   74.94889832    4.90999985    2.96000004
   15.05777836   72.88089752    4.90999985    2.96000004
   15.06083393   75.15219879    4.90999985    2.98000002
   15.06416702   74.87760162    4.90999985    2.96000004
   15.06750011   75.33899689    4.90999985    2.98000002
   15.07055569   73.68900299    4.90999985    2.96000004
   15.07388878   71.49629974    4.90999985    2.98000002
   15.07722187   73.02940369    4.90999985    2.96000004
   15.08194447   73.02940369    4.90999985    2.96000004
   15.08583260   71.24069977    4.90999985    2.96000004
   15.08916664   75.38529968    4.90999985    2.96000004
   15.09249973   70.53179932    4.90999985    2.96000004
   15.09555531   76.85630035    4.90999985    2.96000004
   15.09611034   72.20050049    4.90999985    2.96000004
   15.09916592   74.95179749    4.90999985    2.96000004
   15.10249996   73.54820251    4.90999985    2.96000004
   15.10555553   73.57839966    4.90999985    2.96000004
   15.10888958   73.25019836    4.90999985    2.96000004
   15.11222267   76.83709717    4.90999985    2.96000004
   15.11527824   75.02369690    4.90999985    2.98000002
   15.11861134   73.04859924    4.90999985    2.96000004
   15.12166691   73.41660309    4.90999985    2.94000006
   15.12500000   73.51840210    4.90999985    2.96000004
   15.12833309   72.47309875    4.90999985    2.96000004
   15.13305569   72.47309875    4.90999985    2.96000004
   15.13722229   73.51339722    4.90999985    2.96000004
   15.14027786   74.13050079    4.90999985    2.96000004
   15.14361095   73.82379913    4.90999985    2.96000004
   15.14611053   73.66210175    4.90999985    2.96000004
   15.14722252   73.59670258    4.90999985    2.96000004
   15.15055561   73.04989624    4.90999985    2.96000004
   15.15361118   74.63800049    4.90999985    2.98000002
   15.15694427   72.62750244    4.90999985    2.96000004
   15.16027737   73.59040070    4.90999985    2.98000002
   15.16333294   74.83580017    4.90999985    2.96000004
   15.16666698   75.29979706    4.90999985    2.98000002
   15.16972256   74.05030060    4.90999985    2.98000002
   15.17305565   71.59780121    4.90999985    2.98000002
   15.17638874   70.29109955    4.90999985    2.96000004
   15.17944431   73.56369781    4.90999985    2.96000004
   15.18416691   73.56369781    4.90999985    2.96000004
   15.18833351   76.99359894    4.90999985    2.96000004
   15.19166660   73.55819702    4.90999985    2.96000004
   15.19472218   72.55329895    4.90999985    2.98000002
   15.19611073   72.96910095    4.90999985    2.96000004
   15.19833374   73.79489899    4.90999985    2.96000004
   15.20166683   72.63069916    4.90999985    2.96000004
   15.20472240   72.52690125    4.90999985    2.96000004
   15.20805550   76.14029694    4.90999985    2.96000004
   15.21138859   73.88249969    4.90999985    2.96000004
   15.21444416   72.01709747    4.90999985    2.96000004
   15.21777725   75.62740326    4.90999985    2.96000004
   15.22111034   71.37560272    4.90999985    2.96000004
   15.22416592   74.72799683    4.90999985    2.96000004
   15.22749996   73.89399719    4.90999985    2.96000004
   15.23055553   73.93890381    4.90999985    2.96000004
   15.23527813   73.93890381    4.90999985    2.98000002
   15.23944473   73.66120148    4.90999985    2.98000002
   15.24277782   71.92240143    4.90999985    2.96000004
   15.24583340   72.45520020    4.90999985    2.98000002
   15.24638939   71.31610107    4.90999985    2.98000002
   15.24944496   71.65499878    4.90999985    2.96000004
   15.25277805   71.97380066    4.90999985    2.96000004
   15.25583363   69.25700378    4.90999985    2.98000002
   15.25916672   72.07160187    4.90999985    2.96000004
   15.26249981   70.92829895    4.90999985    2.96000004
   15.26555538   74.44670105    4.90999985    2.98000002
   15.26888847   71.94390106    4.90999985    2.98000002
   15.27222157   69.15670013    4.90999985    2.98000002
   15.27527714   76.01249695    4.90999985    2.98000002
   15.27861118   71.07620239    4.90999985    2.98000002
   15.28166676   71.94650269    4.90999985    2.96000004
   15.28666687   71.94650269    4.90999985    2.96000004
   15.29055595   73.07350159    4.90999985    2.96000004
   15.29388905   71.81870270    4.90999985    2.96000004
   15.29638958   72.43119812    4.90999985    2.96000004
   15.29750061   72.65470123    4.90999985    2.96000004
   15.30083370   72.11160278    4.90999985    2.96000004
   15.30388927   72.78079987    4.90999985    2.96000004
   15.30722237   73.44979858    4.90999985    2.96000004
   15.31055546   71.14409637    4.90999985    2.96000004
   15.31361103   73.36119843    4.90999985    2.96000004
   15.31694412   73.29160309    4.90999985    2.94000006
   15.31999969   71.05639648    4.90999985    2.96000004
   15.32333374   72.85169983    4.90999985    2.96000004
   15.32666683   71.24949646    4.90999985    2.96000004
   15.32972240   70.43820190    4.90999985    2.96000004
   15.33305550   73.54460144    4.90999985    2.96000004
   15.33777714   73.54460144    4.90999985    2.94000006
   15.34194374   73.05169678    4.90999985    2.98000002
   15.34499931   72.62969971    4.90999985    2.96000004
   15.34666634   71.42440033    4.90999985    2.96000004
   15.34861088   72.13939667    4.90999985    2.96000004
   15.35194492   72.47979736    4.90999985    2.96000004
   15.35500050   76.71080017    4.90999985    2.96000004
   15.35833359   72.16239929    4.90999985    2.96000004
   15.36166668   71.75650024    4.90999985    2.96000004
   15.36472225   73.41889954    4.90999985    2.96000004
   15.36805534   73.37950134    4.90999985    2.96000004
   15.37138939   70.60630035    4.90999985    2.98000002
   15.37444496   71.42810059    4.90999985    2.98000002
   15.37777805   73.38939667    4.90999985    2.96000004
   15.38083363   76.36830139    4.90999985    2.96000004
   15.38416672   71.66079712    4.90999985    2.96000004
   15.38888836   71.66079712    4.90999985    2.96000004
   15.39305496   72.22460175    4.90999985    2.96000004
   15.39638901   71.68340302    4.90999985    2.96000004
   15.39666653   73.21029663    4.90999985    2.96000004
   15.39999962   73.75910187    4.90999985    2.96000004
   15.40333271   72.76480103    4.90999985    2.96000004
   15.40638828   72.62059784    4.90999985    2.96000004
   15.40972137   74.92079926    4.90999985    2.96000004
   15.41305542   72.32330322    4.90999985    2.96000004
   15.41611099   71.95390320    4.90999985    2.98000002
   15.41944504   76.42220306    4.90999985    2.96000004
   15.42277813   76.00450134    4.90999985    2.96000004
   15.42583370   73.81600189    4.90999985    2.96000004
   15.42916679   73.13729858    4.90999985    2.96000004
   15.43222237   74.22080231    4.90999985    2.98000002
   15.43555546   77.68340302    4.90999985    2.98000002
   15.44000053   77.68340302    4.90999985    2.96000004
   15.44416714   73.74140167    4.90999985    2.98000002
   15.44666672   72.65869904    4.90999985    2.96000004
   15.44777775   72.15709686    4.90999985    2.98000002
   15.45111084   71.98670197    4.90999985    2.98000002
   15.45416641   69.91010284    4.90999985    2.96000004
   15.45749950   73.81939697    4.90999985    2.98000002
   15.46083355   71.95619965    4.90999985    2.96000004
   15.46388912   70.50640106    4.90999985    2.96000004
   15.46722221   71.86820221    4.90999985    2.96000004
   15.47027779   75.45520020    4.90999985    2.96000004
   15.47361088   75.25350189    4.90999985    2.98000002
   15.47694397   73.94149780    4.90999985    2.98000002
   15.47999954   73.00900269    4.90999985    2.98000002
   15.48333359   72.69409943    4.90999985    2.98000002
   15.48666668   75.35279846    4.90999985    2.98000002
   15.49138927   75.35279846    4.90999985    2.96000004
   15.49527836   71.92900085    4.90999985    2.96000004
   15.49694443   74.45130157    4.90999985    2.96000004
   15.49888897   72.99960327    4.90999985    2.96000004
   15.50222206   73.57620239    4.90999985    2.98000002
   15.50527763   71.79599762    4.90999985    2.96000004
   15.50861073   70.97070313    4.90999985    2.98000002
   15.51194477   73.70659637    4.90999985    2.98000002
   15.51500034   72.91539764    4.90999985    2.98000002
   15.51833344   69.51280212    4.90999985    2.98000002
   15.52166653   71.53980255    4.90999985    2.96000004
   15.52472210   70.58239746    4.90999985    2.96000004
   15.52805519   73.72010040    4.90999985    2.96000004
   15.53111076   73.55719757    4.90999985    2.96000004
   15.53444481   71.70510101    4.90999985    2.98000002
   15.53777790   71.52799988    4.90999985    2.96000004
   15.54250050   71.52799988    4.90999985    2.96000004
   15.54666710   71.14839935    4.90999985    2.96000004
   15.54722309   73.18440247    4.90999985    2.96000004
   15.55027771   73.93630219    4.90999985    2.98000002
   15.55361176   72.61849976    4.90999985    2.98000002
   15.55666733   71.98229980    4.90999985    2.98000002
   15.56000042   72.88839722    4.90999985    2.98000002
   15.56333351   70.83470154    4.90999985    2.96000004
   15.56638908   70.82869720    4.90999985    2.98000002
   15.56972218   72.29479980    4.90999985    2.96000004
   15.57305527   69.20410156    4.90999985    2.96000004
   15.57611084   71.69490051    4.90999985    2.96000004
   15.57944393   73.94999695    4.90999985    2.98000002
   15.58249950   73.27310181    4.90999985    2.96000004
   15.58583260   70.47989655    4.90999985    2.96000004
   15.58916664   71.36340332    4.90999985    2.98000002
   15.59361076   71.36340332    4.90999985    2.98000002
   15.59777737   71.83789825    4.90999985    2.96000004
   15.60111141   73.93039703    4.90999985    2.98000002
   15.60416698   72.94689941    4.90999985    2.96000004
   15.60750008   71.99980164    4.90999985    2.96000004
   15.61055565   72.81569672    4.90999985    2.96000004
   15.61388969   72.80259705    4.90999985    2.96000004
   15.61722279   75.47519684    4.90999985    2.96000004
   15.62027836   75.82029724    4.90999985    2.96000004
   15.62361145   71.02179718    4.90999985    2.96000004
   15.62694454   71.68019867    4.90999985    2.96000004
   15.63000011   72.76589966    4.90999985    2.96000004
   15.63333321   72.54109955    4.90999985    2.96000004
   15.63638878   72.49530029    4.90999985    2.96000004
   15.63972187   70.24479675    4.90999985    2.96000004
   15.64472198   70.24479675    4.90999985    2.98000002
   15.64888859   74.28050232    4.90999985    2.96000004
   15.65222168   73.36979675    4.90999985    2.96000004
   15.65527725   74.60610199    4.90999985    2.96000004
   15.65861034   73.62159729    4.90999985    2.96000004
   15.66194439   74.79699707    4.90999985    2.96000004
   15.66499996   70.87390137    4.90999985    2.96000004
   15.66833401   70.82749939    4.90999985    2.96000004
   15.67138958   76.54479980    4.90999985    2.96000004
   15.67472267   74.31089783    4.90999985    2.96000004
   15.67805576   72.31780243    4.90999985    2.96000004
   15.68111134   71.65339661    4.90999985    2.96000004
   15.68444443   71.43979645    4.90999985    2.96000004
   15.68777752   73.49669647    4.90999985    2.96000004
   15.69083309   72.14559937    4.90999985    2.96000004
   15.69583321   72.14559937    4.90999985    2.96000004
   15.69999981   72.86920166    4.90999985    2.98000002
   15.70333290   73.44789886    4.90999985    2.96000004
   15.70666695   73.05539703    4.90999985    2.96000004
   15.70972157   73.07640076    4.90999985    2.96000004
   15.71305561   72.90260315    4.90999985    2.98000002
   15.71638870   73.39109802    4.90999985    2.96000004
   15.71944427   71.90160370    4.90999985    2.98000002
   15.72277737   74.69020081    4.90999985    2.98000002
   15.72583294   71.66179657    4.90999985    2.98000002
   15.72916603   71.79789734    4.90999985    2.98000002
   15.73249912   73.81680298    4.90999985    2.96000004
   15.73555565   76.02149963    4.90999985    2.98000002
   15.73888874   72.54290009    4.90999985    2.96000004
   15.74222279   70.82980347    4.90999985    2.98000002
   15.76361084   70.44200134    4.90999985    2.98000002
   15.76388931   73.14800262    4.90999985    2.96000004
   15.76722240   78.08260345    4.90999985    2.98000002
   15.77055550   71.96060181    4.90999985    2.96000004
   15.77361107   72.23500061    4.90999985    2.96000004
   15.77694416   73.71479797    4.90999985    2.96000004
   15.78027725   73.29920197    4.90999985    2.96000004
   15.78333378   75.30639648    4.90999985    2.96000004
   15.78666687   71.97540283    4.90999985    2.96000004
   15.78972244   71.04370117    4.90999985    2.96000004
   15.79305553   74.08370209    4.90999985    2.98000002
   15.79833412   74.08370209    4.90999985    2.96000004
   15.80249977   72.57920074    4.90999985    2.96000004
   15.80583382   73.51499939    4.90999985    2.96000004
   15.80916691   72.79479980    4.90999985    2.96000004
   15.81222248   72.49220276    4.90999985    2.96000004
   15.81333351   71.97760010    4.90999985    2.96000004
   15.81583309   71.88249969    4.90999985    2.98000002
   15.81916618   73.48930359    4.90999985    2.96000004
   15.82222176   71.46029663    4.90999985    2.98000002
   15.82555580   71.39869690    4.90999985    2.96000004
   15.82888889   68.47699738    4.90999985    2.98000002
   15.83194447   72.38580322    4.90999985    2.98000002
   15.83527756   70.59300232    4.90999985    2.98000002
   15.83833313   73.80490112    4.90999985    2.96000004
   15.84166622   71.54930115    4.90999985    2.98000002
   15.84499931   71.50769806    4.90999985    2.96000004
   15.84972191   71.50769806    4.90999985    2.98000002
   15.85361195   69.52739716    4.90999985    2.98000002
   15.85694504   69.56490326    4.90999985    2.96000004
   15.86027813   72.08589935    4.90999985    2.96000004
   15.86333370   71.65840149    4.90999985    2.98000002
   15.86388969   74.48760223    4.90999985    2.98000002
   15.86722279   71.60859680    4.90999985    2.98000002
   15.87055588   78.90750122    4.90999985    2.98000002
   15.87361145   75.44080353    4.90999985    2.96000004
   15.87694454   77.30480194    4.90999985    2.98000002
   15.88000011   71.78420258    4.90999985    2.96000004
   15.88333321   71.40979767    4.90999985    2.96000004
   15.88666630   74.50170135    4.90999985    2.98000002
   15.88972187   71.60060120    4.90999985    2.98000002
   15.89305496   70.19960022    4.90999985    2.98000002
   15.89638901   71.58879852    4.90999985    2.96000004
   15.90083313   71.58879852    4.90999985    2.98000002
   15.90499973   74.09249878    4.90999985    2.98000002
   15.90805531   77.29779816    4.90999985    2.98000002
   15.91138840   72.72579956    4.90999985    2.96000004
   15.91361046   69.43029785    4.90999985    2.98000002
   15.91499996   69.03739929    4.90999985    2.98000002
   15.91833401   70.96649933    4.90999985    2.98000002
   15.92138958   70.44170380    4.90999985    2.96000004
   15.92472267   72.34680176    4.90999985    2.96000004
   15.92805576   73.20420074    4.90999985    2.98000002
   15.93111134   70.02929688    4.90999985    2.98000002
   15.93444443   70.02140045    4.90999985    2.98000002
   15.93777752   71.40809631    4.90999985    2.98000002
   15.94083309   73.40779877    4.90999985    2.98000002
   15.94416714   73.41909790    4.90999985    2.98000002
   15.94722271   73.56259918    4.90999985    2.98000002
   15.95194435   73.56259918    4.90999985    2.96000004
   15.95611095   72.58470154    4.90999985    2.98000002
   15.95944405   73.80079651    4.90999985    2.96000004
   15.96249962   72.64540100    4.90999985    2.98000002
   15.96361065   75.92479706    4.90999985    2.98000002
   15.96611118   74.42729950    4.90999985    2.98000002
   15.96944427   75.77089691    4.90999985    2.96000004
   15.97277737   73.30249786    4.90999985    2.96000004
   15.97583294   72.91950226    4.90999985    2.96000004
   15.97916603   69.90440369    4.90999985    2.96000004
   15.98222160   72.71839905    4.90999985    2.96000004
   15.98555565   70.13690186    4.90999985    2.98000002
   15.98888874   72.59690094    4.90999985    2.96000004
   15.99194431   69.93740082    4.90999985    2.96000004
   15.99527836   73.09490204    4.90999985    2.96000004
   15.99861145   71.55519867    4.90999985    2.98000002
   16.00305557   71.55519867    4.90999985    2.96000004
   16.00722313   70.14649963    4.90999985    2.96000004
   16.01055527   72.56549835    4.90999985    2.96000004
   16.01361084   74.42990112    4.90999985    2.96000004
   16.01416588   74.01740265    4.90999985    2.96000004
   16.01749992   70.46839905    4.90999985    2.96000004
   16.02055550   70.26409912    4.90999985    2.96000004
   16.02388954   72.03479767    4.90999985    2.96000004
   16.02694511   70.53079987    4.90999985    2.96000004
   16.03027725   71.12590027    4.90999985    2.96000004
   16.03361130   72.40319824    4.90999985    2.98000002
   16.03666687   70.50319672    4.90999985    2.98000002
   16.03999901   71.22460175    4.90999985    2.98000002
   16.04333305   71.73300171    4.90999985    2.98000002
   16.04638863   75.74890137    4.90999985    2.98000002
   16.04972076   71.25509644    4.90999985    2.96000004
   16.05444336   71.25509644    4.90999985    2.98000002
   16.05861092   71.01210022    4.90999985    2.98000002
   16.06166649   71.88580322    4.90999985    2.98000002
   16.06361008   71.11969757    4.90999985    2.96000004
   16.06527710   71.43270111    4.90999985    2.98000002
   16.06861115   70.65249634    4.90999985    2.98000002
   16.07166672   73.43270111    4.90999985    2.96000004
   16.07500076   70.79109955    4.90999985    2.98000002
   16.07805634   70.79450226    4.90999985    2.98000002
   16.08139038   73.30429840    4.90999985    2.98000002
   16.08472252   71.66680145    4.90999985    2.98000002
   16.08777809   71.59230042    4.90999985    2.98000002
   16.09111214   69.90540314    4.90999985    2.98000002
   16.09444427   70.47579956    4.90999985    2.96000004
   16.09749985   70.08809662    4.90999985    2.98000002
   16.10083389   72.41719818    4.90999985    2.96000004
   16.10555649   72.41719818    4.90999985    2.96000004
   16.10972214   72.64109802    4.90999985    2.98000002
   16.11305618   75.60510254    4.90999985    2.98000002
   16.11361122   73.73629761    4.90999985    2.98000002
   16.11666679   71.35289764    4.90999985    2.98000002
   16.12000084   71.83300018    4.90999985    2.98000002
   16.12305641   75.43309784    4.90999985    2.98000002
   16.12638855   73.59590149    4.90999985    2.96000004
   16.12972260   71.53510284    4.90999985    2.98000002
   16.13277817   73.59179688    4.90999985    2.98000002
   16.13611031   71.43710327    4.90999985    2.98000002
   16.13916588   71.32859802    4.90999985    2.98000002
   16.14249992   72.13510132    4.90999985    2.96000004
   16.14583397   70.12989807    4.90999985    2.98000002
   16.14888954   74.43650055    4.90999985    2.98000002
   16.15222168   71.91880035    4.90999985    2.98000002
   16.15666580   71.91880035    4.90999985    2.96000004
   16.16083336   72.58830261    4.90999985    2.96000004
   16.16361046   69.73210144    4.90999985    2.96000004
   16.16444397   71.63549805    4.90999985    2.98000002
   16.16777802   71.80879974    4.90999985    2.98000002
   16.17083359   71.88659668    4.90999985    2.96000004
   16.17416573   73.12059784    4.90999985    2.98000002
   16.17722130   70.73449707    4.90999985    2.98000002
   16.18055534   70.23390198    4.90999985    2.98000002
   16.18388748   70.34020233    4.90999985    2.98000002
   16.18694305   73.03079987    4.90999985    2.96000004
   16.19027710   71.38159943    4.90999985    2.98000002
   16.19361115   70.09519958    4.90999985    2.98000002
   16.19666672   72.05329895    4.90999985    2.98000002
   16.20000076   72.92539978    4.90999985    2.98000002
   16.20305634   72.55010223    4.90999985    2.98000002
   16.20805550   72.55010223    4.90999985    2.98000002
   16.21194458   71.36419678    4.90999985    2.98000002
   16.21361160   71.06880188    4.90999985    2.98000002
   16.21555710   71.48840332    4.90999985    2.98000002
   16.21888924   71.97599792    4.90999985    2.98000002
   16.22194481   72.68949890    4.90999985    2.98000002
   16.22527885   73.16709900    4.90999985    2.98000002
   16.22861099   72.80159760    4.90999985    2.98000002
   16.23166656   73.32479858    4.90999985    2.98000002
   16.23500061   75.12819672    4.90999985    2.96000004
   16.23805618   74.98870087    4.90999985    2.98000002
   16.24138832   72.33889771    4.90999985    2.98000002
   16.24472237   72.63610077    4.90999985    2.98000002
   16.24777794   72.19049835    4.90999985    2.98000002
   16.25111198   69.42410278    4.90999985    2.98000002
   16.25444412   70.38629913    4.90999985    2.98000002
   16.25916672   70.38629913    4.90999985    2.98000002
   16.26333427   68.10639954    4.90999985    2.98000002
   16.26388931   70.84880066    4.90999985    2.98000002
   16.26666641   71.11759949    4.90999985    2.98000002
   16.27000046   70.10420227    4.90999985    2.96000004
   16.27305603   72.97229767    4.90999985    2.96000004
   16.27638817   71.25330353    4.90999985    2.98000002
   16.27972221   71.51380157    4.90999985    2.98000002
   16.28277779   68.86920166    4.90999985    2.98000002
   16.28610992   71.41590118    4.90999985    2.98000002
   16.28944397   74.08799744    4.90999985    2.98000002
   16.29249954   73.17369843    4.90999985    2.98000002
   16.29583359   71.70590210    4.90999985    2.98000002
   16.29888916   73.16480255    4.90999985    2.98000002
   16.30222130   70.59619904    4.90999985    2.98000002
   16.30555534   71.26370239    4.90999985    2.98000002
   16.31027794   71.26370239    4.90999985    2.98000002
   16.31444359   71.29470062    4.90999985    2.98000002
   16.31777954   75.72989655    4.90999985    2.98000002
   16.32083511   72.56559753    4.90999985    2.98000002
   16.32416725   72.15630341    4.90999985    2.96000004
   16.32722282   69.63269806    4.90999985    2.96000004
   16.33055687   71.87930298    4.90999985    2.98000002
   16.33388901   70.75669861    4.90999985    2.98000002
   16.33694458   70.18399811    4.90999985    2.98000002
   16.34027863   71.37409973    4.90999985    2.96000004
   16.34361267   72.82489777    4.90999985    2.98000002
   16.34666824   72.96330261    4.90999985    2.98000002
   16.35000038   73.16809845    4.90999985    2.98000002
   16.35305595   69.60590363    4.90999985    2.98000002
   16.35639000   71.26730347    4.90999985    2.98000002
   16.36138916   71.26730347    4.90999985    2.98000002
   16.36555672   73.97280121    4.90999985    2.98000002
   16.36888885   71.92759705    4.90999985    2.98000002
   16.37194443   71.38439941    4.90999985    3.00000000
   16.37527847   71.41249847    4.90999985    2.98000002
   16.37861061   73.58010101    4.90999985    2.98000002
   16.38166618   71.96769714    4.90999985    2.98000002
   16.38500023   70.24490356    4.90999985    2.98000002
   16.38805580   73.94029999    4.90999985    2.98000002
   16.39138794   70.26830292    4.90999985    2.98000002
   16.39472198   70.52519989    4.90999985    2.98000002
   16.39777756   72.78959656    4.90999985    2.98000002
   16.40111160   72.03959656    4.90999985    3.00000000
   16.40444374   72.46569824    4.90999985    3.00000000
   16.40749931   72.79509735    4.90999985    3.00000000
   16.41277695   72.79509735    4.90999985    2.98000002
   16.41666603   72.49269867    4.90999985    2.98000002
   16.42000008   70.39029694    4.90999985    3.00000000
   16.42333221   71.89939880    4.90999985    2.98000002
   16.42638779   71.95459747    4.90999985    2.98000002
   16.42972183   71.50389862    4.90999985    2.98000002
   16.43277740   70.66329956    4.90999985    2.98000002
   16.43610954   70.11599731    4.90999985    2.98000002
   16.43944359   70.72689819    4.90999985    2.98000002
   16.44249916   72.64459991    4.90999985    2.98000002
   16.44583321   70.13520050    4.90999985    2.98000002
   16.44916534   73.16010284    4.90999985    2.98000002
   16.45222282   71.07649994    4.90999985    2.98000002
   16.45555687   71.76000214    4.90999985    2.98000002
   16.45861244   70.27729797    4.90999985    2.98000002
   16.46389008   70.27729797    4.90999985    3.00000000
   16.46805573   72.47170258    4.90999985    2.98000002
   16.47111130   70.59259796    4.90999985    3.00000000
   16.47444534   72.28939819    4.90999985    2.98000002
   16.47777748   72.29280090    4.90999985    2.98000002
   16.48083305   70.50489807    4.90999985    2.98000002
   16.48416710   71.45549774    4.90999985    2.98000002
   16.48750114   73.37210083    4.90999985    2.98000002
   16.49055672   72.67150116    4.90999985    2.98000002
   16.49388885   71.13929749    4.90999985    2.98000002
   16.49694443   70.74600220    4.90999985    2.98000002
   16.50027847   69.53659821    4.90999985    2.98000002
   16.50361061   70.45539856    4.90999985    2.98000002
   16.50666618   70.31340027    4.90999985    2.98000002
   16.51000023   70.16079712    4.90999985    2.98000002
   16.51499939   70.16079712    4.90999985    2.98000002
   16.51916695   71.90789795    4.90999985    2.98000002
   16.52222252   70.91570282    4.90999985    2.98000002
   16.52555466   72.29409790    4.90999985    2.98000002
   16.52888870   72.53500366    4.90999985    2.98000002
   16.53194427   73.30229950    4.90999985    2.98000002
   16.53527641   71.66159821    4.90999985    2.98000002
   16.53861046   72.70130157    4.90999985    2.98000002
   16.54166603   74.54409790    4.90999985    2.98000002
   16.54500008   75.44139862    4.90999985    2.98000002
   16.54805565   71.73799896    4.90999985    2.96000004
   16.55138779   71.02649689    4.90999985    2.98000002
   16.55472183   73.64640045    4.90999985    2.96000004
   16.55805397   69.64420319    4.90999985    2.98000002
   16.56110954   69.85739899    4.90999985    2.98000002
   16.56611061   69.85739899    4.90999985    2.98000002
   16.57027817   73.34449768    4.90999985    2.98000002
   16.57361221   71.09750366    4.90999985    2.98000002
   16.57666779   73.54309845    4.90999985    2.98000002
   16.58000183   73.03289795    4.90999985    2.96000004
   16.58333397   72.39289856    4.90999985    2.96000004
   16.58638954   71.84140015    4.90999985    2.96000004
   16.58972359   72.02700043    4.90999985    2.98000002
   16.59305573   72.55130005    4.90999985    2.98000002
   16.59611130   70.46240234    4.90999985    2.98000002
   16.59944534   70.66670227    4.90999985    2.98000002
   16.60250092   72.94670105    4.90999985    2.98000002
   16.60583305   71.28130341    4.90999985    2.98000002
   16.60916710   71.10130310    4.90999985    2.98000002
   16.61222267   70.54630280    4.90999985    2.98000002
   16.61722183   70.54630280    4.90999985    2.96000004
   16.62138939   70.81770325    4.90999985    2.98000002
   16.62472153   71.76200104    4.90999985    2.98000002
   16.62805557   72.54589844    4.90999985    2.98000002
   16.63111115   71.35929871    4.90999985    2.98000002
   16.63444519   69.64369965    4.90999985    2.98000002
   16.63777733   71.03140259    4.90999985    2.96000004
   16.64083290   69.75710297    4.90999985    2.98000002
   16.64416695   70.40859985    4.90999985    2.98000002
   16.64722252   69.32659912    4.90999985    2.98000002
   16.65083313   71.85320282    4.90999985    2.98000002
   16.65388870   70.82460022    4.90999985    2.98000002
   16.65722275   73.89299774    4.90999985    2.98000002
   16.66027832   71.67240143    4.90999985    3.00000000
   16.66361046   73.13379669    4.90999985    2.98000002
   16.66860962   73.13379669    4.90999985    3.00000000
   16.67277718   71.60179901    4.90999985    3.00000000
   16.67583275   70.50340271    4.90999985    2.98000002
   16.67916679   70.21970367    4.90999985    2.98000002
   16.68222237   71.47779846    4.90999985    2.98000002
   16.68555450   72.03209686    4.90999985    2.98000002
   16.68888855   69.14109802    4.90999985    2.98000002
   16.69194412   70.51570129    4.90999985    2.98000002
   16.69527626   69.95400238    4.90999985    2.98000002
   16.69861031   71.31449890    4.90999985    2.98000002
   16.70166779   71.38999939    4.90999985    3.00000000
   16.70499992   72.87590027    4.90999985    2.98000002
   16.70805550   74.01190186    4.90999985    2.98000002
   16.71138954   73.07469940    4.90999985    3.00000000
   16.71472359   75.85160065    4.90999985    3.00000000
   16.71972275   75.85160065    4.90999985    2.98000002
   16.72389030   75.32610321    4.90999985    2.98000002
   16.72694588   72.91840363    4.90999985    3.00000000
   16.73027802   73.08910370    4.90999985    2.98000002
   16.73361206   73.06340027    4.90999985    3.00000000
   16.73666763   73.10919952    4.90999985    2.98000002
   16.73999977   71.47509766    4.90999985    2.98000002
   16.74333382   71.95240021    4.90999985    2.98000002
   16.74638939   69.66269684    4.90999985    2.98000002
   16.74972153   70.92259979    4.90999985    2.98000002
   16.75277710   72.31179810    4.90999985    3.00000000
   16.75611115   73.12560272    4.90999985    2.98000002
   16.75944519   74.58119965    4.90999985    2.98000002
   16.76250076   75.27200317    4.90999985    2.98000002
   16.78361130   75.27200317    4.90999985    2.98000002
   16.78777695   71.72360229    4.90999985    2.98000002
   16.79111099   72.65959930    4.90999985    3.00000000
   16.79444313   75.15509796    4.90999985    3.00000000
   16.79749870   69.95429993    4.90999985    3.00000000
   16.80083275   71.75769806    4.90999985    3.01999998
   16.80388832   72.26599884    4.90999985    3.00000000
   16.80722237   72.27390289    4.90999985    3.00000000
   16.81055450   71.52899933    4.90999985    2.98000002
   16.81361008   74.35459900    4.90999985    2.98000002
   16.81694603   72.44450378    4.90999985    2.98000002
   16.82027817   75.60829926    4.90999985    2.98000002
   16.82333374   73.10459900    4.90999985    2.98000002
   16.82666779   70.42960358    4.90999985    2.98000002
   16.82972336   69.85859680    4.90999985    2.98000002
   16.83111191   71.22889709    4.90999985    2.98000002
   16.83527756   71.22889709    4.90999985    2.98000002
   16.83944511   71.49909973    4.90999985    2.98000002
   16.84277916   71.27050018    4.90999985    2.98000002
   16.84583473   70.23950195    4.90999985    2.98000002
   16.84916687   70.28630066    4.90999985    2.98000002
   16.85250092   72.86820221    4.90999985    2.98000002
   16.85555649   72.50969696    4.90999985    2.98000002
   16.85888863   72.74459839    4.90999985    2.98000002
   16.86194420   73.26370239    4.90999985    3.00000000
   16.86527824   70.67389679    4.90999985    2.98000002
   16.86861038   72.42269897    4.90999985    2.98000002
   16.87166595   74.00469971    4.90999985    3.00000000
   16.87500000   71.22409821    4.90999985    3.00000000
   16.87833405   73.36660004    4.90999985    3.00000000
   16.88111115   71.86750031    4.90999985    3.00000000
   16.88194466   72.32230377    4.90999985    3.00000000
   16.88666725   72.32230377    4.90999985    2.98000002
   16.89055634   70.80100250    4.90999985    2.98000002
   16.89388847   70.43180084    4.90999985    3.00000000
   16.89722252   71.94789886    4.90999985    2.98000002
   16.90027809   73.88179779    4.90999985    2.98000002
   16.90361023   71.58129883    4.90999985    2.98000002
   16.90666580   70.20480347    4.90999985    2.98000002
   16.90999985   75.77189636    4.90999985    2.98000002
   16.91333389   70.66870117    4.90999985    2.98000002
   16.91638756   71.84410095    4.90999985    2.98000002
   16.91972160   71.87210083    4.90999985    3.00000000
   16.92305565   70.59010315    4.90999985    2.98000002
   16.92611122   70.65910339    4.90999985    2.98000002
   16.92944336   69.42769623    4.90999985    2.98000002
   16.93111038   72.03369904    4.90999985    3.00000000
   16.93305397   71.20770264    4.90999985    2.98000002
   16.93777657   71.20770264    4.90999985    2.98000002
   16.94194412   71.19619751    4.90999985    2.98000002
   16.94499969   72.10440063    4.90999985    2.98000002
   16.94833183   74.39399719    4.90999985    3.00000000
   16.95138931   74.38410187    4.90999985    2.98000002
   16.95472336   72.08869934    4.90999985    2.98000002
   16.95805550   72.75000000    4.90999985    2.98000002
   16.96111107   70.43689728    4.90999985    2.98000002
   16.96444511   72.20670319    4.90999985    2.98000002
   16.96777916   71.31880188    4.90999985    2.98000002
   16.97083473   70.07550049    4.90999985    3.00000000
   16.97416687   72.97930145    4.90999985    2.98000002
   16.97722244   72.64099884    4.90999985    2.98000002
   16.98055649   71.84899902    4.90999985    2.98000002
   16.98111153   73.91139984    4.90999985    2.98000002
   16.98416710   72.59329987    4.90999985    2.98000002
   16.98888969   72.59329987    4.90999985    2.98000002
   16.99305534   73.23290253    4.90999985    2.98000002
   16.99611092   72.90650177    4.90999985    2.98000002
   16.99944496   73.19930267    4.90999985    2.98000002
   17.00277710   74.63880157    4.90999985    3.00000000
   17.00583267   73.91230011    4.90999985    2.98000002
   17.00916672   76.67630005    4.90999985    2.98000002
   17.01250076   71.25489807    4.90999985    3.00000000
   17.01555634   70.32399750    4.90999985    3.00000000
   17.01888847   73.28450012    4.90999985    3.00000000
   17.02194405   71.47899628    4.90999985    2.98000002
   17.02527809   72.38520050    4.90999985    2.98000002
   17.02861023   71.97760010    4.90999985    2.98000002
   17.03111076   70.11370087    4.90999985    2.98000002
   17.03222275   71.26159668    4.90999985    2.98000002
   17.03555489   71.82089996    4.90999985    3.00000000
   17.03999901   71.82089996    4.90999985    3.00000000
   17.04416656   70.99400330    4.90999985    3.00000000
   17.04749870   72.55899811    4.90999985    3.00000000
   17.05055428   69.98159790    4.90999985    3.00000000
   17.05388832   71.03009796    4.90999985    3.00000000
   17.05722237   70.43409729    4.90999985    3.00000000
   17.06027794   72.73040009    4.90999985    2.98000002
   17.06361008   71.39710236    4.90999985    3.01999998
   17.06694603   72.70629883    4.90999985    3.00000000
   17.07000160   71.89299774    4.90999985    2.98000002
   17.07333374   67.44360352    4.90999985    2.98000002
   17.07666779   72.80130005    4.90999985    3.00000000
   17.07972336   71.68530273    4.90999985    2.98000002
   17.08111191   73.80660248    4.90999985    3.00000000
   17.08333397   74.25299835    4.90999985    3.00000000
   17.08666801   71.49150085    4.90999985    3.00000000
   17.09111214   71.49150085    4.90999985    3.00000000
   17.09527779   71.56649780    4.90999985    3.00000000
   17.09861183   71.85320282    4.90999985    2.98000002
   17.10194397   74.15440369    4.90999985    2.98000002
   17.10499954   77.68650055    4.90999985    3.00000000
   17.10833359   70.97190094    4.90999985    3.00000000
   17.11138916   72.98139954    4.90999985    3.00000000
   17.11472321   72.98999786    4.90999985    2.98000002
   17.11805534   70.24870300    4.90999985    2.98000002
   17.12111092   71.00469971    4.90999985    2.98000002
   17.12444496   70.26799774    4.90999985    3.00000000
   17.12777710   70.88030243    4.90999985    2.98000002
   17.13083267   71.42720032    4.90999985    3.00000000
   17.13138962   69.27239990    4.90999985    2.98000002
   17.13472176   71.80480194    4.90999985    2.98000002
   17.13777733   74.65239716    4.90999985    2.98000002
   17.14249992   74.65239716    4.90999985    3.00000000
   17.14666748   71.63230133    4.90999985    3.00000000
   17.14972115   73.57070160    4.90999985    2.98000002
   17.15305519   76.91760254    4.90999985    2.98000002
   17.15611076   70.67530060    4.90999985    2.98000002
   17.15944481   72.42900085    4.90999985    3.00000000
   17.16277695   72.85919952    4.90999985    3.00000000
   17.16583252   70.97170258    4.90999985    2.98000002
   17.16916656   72.62770081    4.90999985    2.98000002
   17.17249870   71.55100250    4.90999985    2.98000002
   17.17555428   72.68489838    4.90999985    2.98000002
   17.17888832   71.23239899    4.90999985    2.98000002
   17.18138885   73.94750214    4.90999985    2.98000002
   17.18249893   70.53079987    4.90999985    2.98000002
   17.18555450   73.43409729    4.90999985    3.00000000
   17.18888855   70.11129761    4.90999985    3.00000000
   17.19361115   70.11129761    4.90999985    3.00000000
   17.19777679   70.15679932    4.90999985    3.00000000
   17.20083427   70.78399658    4.90999985    3.00000000
   17.20416832   69.60420227    4.90999985    3.00000000
   17.20750046   70.69570160    4.90999985    2.98000002
   17.21055603   70.48179626    4.90999985    3.00000000
   17.21389008   70.98480225    4.90999985    2.98000002
   17.21722221   71.57319641    4.90999985    3.00000000
   17.22027779   74.24050140    4.90999985    2.98000002
   17.22361183   73.51419830    4.90999985    2.98000002
   17.22666740   72.82540131    4.90999985    2.98000002
   17.23000145   73.71910095    4.90999985    3.00000000
   17.23139000   71.31710052    4.90999985    3.00000000
   17.23361206   72.20570374    4.90999985    3.00000000
   17.23666763   70.73739624    4.90999985    2.98000002
   17.23999977   76.93219757    4.90999985    2.98000002
   17.24472237   76.93219757    4.90999985    3.00000000
   17.24888992   70.43959808    4.90999985    2.98000002
   17.25222206   71.89540100    4.90999985    2.98000002
   17.25527763   73.62550354    4.90999985    2.98000002
   17.25861168   71.61820221    4.90999985    2.98000002
   17.26194382   72.89019775    4.90999985    2.98000002
   17.26499939   72.79100037    4.90999985    2.98000002
   17.26833344   75.44010162    4.90999985    3.00000000
   17.27138901   73.27510071    4.90999985    3.00000000
   17.27472115   74.66940308    4.90999985    2.98000002
   17.27805519   73.88369751    4.90999985    2.98000002
   17.28111076   71.62680054    4.90999985    2.98000002
   17.28166580   72.08499908    4.90999985    2.98000002
   17.28499985   72.67790222    4.90999985    2.98000002
   17.28833199   71.01309967    4.90999985    2.98000002
   17.29138756   71.74559784    4.90999985    3.00000000
   17.29583359   71.74559784    4.90999985    3.00000000
   17.29999924   72.64679718    4.90999985    2.98000002
   17.30333328   74.24210358    4.90999985    2.98000002
   17.30666542   69.26550293    4.90999985    2.98000002
   17.30972099   73.66619873    4.90999985    2.98000002
   17.31305504   72.70619965    4.90999985    2.98000002
   17.31611061   71.91439819    4.90999985    2.98000002
   17.31944466   71.67289734    4.90999985    2.98000002
   17.32277870   70.38169861    4.90999985    2.98000002
   17.32583427   71.16000366    4.90999985    3.00000000
   17.32916832   74.29160309    4.90999985    2.98000002
   17.33166695   70.02069855    4.90999985    2.98000002
   17.33277893   71.35910034    4.90999985    2.98000002
   17.33583450   71.83020020    4.90999985    2.98000002
   17.33916664   73.09110260    4.90999985    2.98000002
   17.34250069   70.67440033    4.90999985    2.98000002
   17.34722328   70.67440033    4.90999985    2.98000002
   17.35138893   70.09079742    4.90999985    2.98000002
   17.35444450   69.65740204    4.90999985    2.98000002
   17.35777855   72.95169830    4.90999985    2.98000002
   17.36083412   73.22589874    4.90999985    2.98000002
   17.36416626   72.27940369    4.90999985    2.98000002
   17.36750031   75.46510315    4.90999985    3.00000000
   17.37055588   69.90869904    4.90999985    2.98000002
   17.37388992   75.21389771    4.90999985    2.98000002
   17.37722206   69.91239929    4.90999985    2.98000002
   17.38027763   72.43569946    4.90999985    2.98000002
   17.38166618   68.90249634    4.90999985    2.98000002
   17.38388824   72.93029785    4.90999985    2.98000002
   17.38722229   73.01580048    4.90999985    2.98000002
   17.39027786   72.75039673    4.90999985    2.98000002
   17.39361191   71.84279633    4.90999985    2.96000004
   17.39833260   71.84279633    4.90999985    2.98000002
   17.40250015   74.30069733    4.90999985    2.98000002
   17.40555573   73.89479828    4.90999985    2.98000002
   17.40888786   70.12079620    4.90999985    2.98000002
   17.41222191   71.18199921    4.90999985    2.98000002
   17.41527748   72.65930176    4.90999985    2.98000002
   17.41860962   70.32360077    4.90999985    2.98000002
   17.42194366   69.89800262    4.90999985    2.98000002
   17.42499924   72.73580170    4.90999985    2.98000002
   17.42833328   69.69210052    4.90999985    2.98000002
   17.43138885   71.28710175    4.90999985    2.98000002
   17.43194389   71.23600006    4.90999985    2.98000002
   17.43527603   73.04019928    4.90999985    2.98000002
   17.43861008   71.34709930    4.90999985    2.98000002
   17.44166565   76.31369781    4.90999985    2.98000002
   17.44499969   73.97709656    4.90999985    2.98000002
   17.44944382   73.97709656    4.90999985    2.98000002
   17.45361137   71.73030090    4.90999985    2.98000002
   17.45694542   71.13520050    4.90999985    2.98000002
   17.46000099   71.33609772    4.90999985    2.98000002
   17.46333504   70.99790192    4.90999985    2.98000002
   17.46638870   71.64820099    4.90999985    2.98000002
   17.46972275   72.54750061    4.90999985    2.98000002
   17.47305679   70.87139893    4.90999985    2.98000002
   17.47611237   72.49859619    4.90999985    2.98000002
   17.47944450   68.87889862    4.90999985    2.98000002
   17.48222351   70.34519958    4.90999985    2.98000002
   17.48305511   71.37650299    4.90999985    2.98000002
   17.48638916   70.96749878    4.90999985    2.98000002
   17.48944473   70.50579834    4.90999985    2.96000004
   17.49277878   70.20570374    4.90999985    2.98000002
   17.49611092   72.69309998    4.90999985    2.98000002
   17.50055504   72.69309998    4.90999985    2.98000002
   17.50472260   72.29290009    4.90999985    2.98000002
   17.50805473   73.45259857    4.90999985    3.00000000
   17.51138878   71.90329742    4.90999985    3.00000000
   17.51444435   72.48220062    4.90999985    2.98000002
   17.51777840   72.42389679    4.90999985    2.98000002
   17.52083397   74.13670349    4.90999985    2.98000002
   17.52416611   73.63559723    4.90999985    2.98000002
   17.52750015   72.70099640    4.90999985    3.00000000
   17.53055573   70.15409851    4.90999985    2.98000002
   17.53222275   71.19159698    4.90999985    2.98000002
   17.53416634   69.40170288    4.90999985    2.98000002
   17.53750038   71.58300018    4.90999985    2.98000002
   17.54055595   69.23760223    4.90999985    2.98000002
   17.54388809   70.33799744    4.90999985    2.98000002
   17.54722214   70.97820282    4.90999985    2.98000002
   17.55194283   70.97820282    4.90999985    2.96000004
   17.55611038   74.38749695    4.90999985    2.96000004
   17.55916595   75.18029785    4.90999985    2.98000002
   17.56250000   71.84719849    4.90999985    2.98000002
   17.56555557   72.00830078    4.90999985    2.98000002
   17.56888962   73.44640350    4.90999985    2.96000004
   17.57222366   71.99440002    4.90999985    2.98000002
   17.57527924   72.65840149    4.90999985    2.98000002
   17.57861137   71.14360046    4.90999985    2.98000002
   17.58194542   71.60600281    4.90999985    2.98000002
   17.58250046   72.89820099    4.90999985    2.98000002
   17.58555603   70.79170227    4.90999985    2.96000004
   17.58889008   71.62079620    4.90999985    2.96000004
   17.59194565   72.02809906    4.90999985    2.98000002
   17.59527779   71.38279724    4.90999985    2.96000004
   17.59861183   74.01139832    4.90999985    2.96000004
   17.60305595   74.01139832    4.90999985    2.96000004
   17.60722351   71.99279785    4.90999985    2.96000004
   17.61027908   73.30599976    4.90999985    2.96000004
   17.61361122   73.83119965    4.90999985    2.96000004
   17.61694527   70.12190247    4.90999985    2.98000002
   17.62000084   73.38619995    4.90999985    2.98000002
   17.62333298   71.55090332    4.90999985    2.98000002
   17.62666702   69.22949982    4.90999985    2.98000002
   17.62972260   75.11260223    4.90999985    2.98000002
   17.63249969   73.15910339    4.90999985    2.98000002
   17.63333321   71.91999817    4.90999985    2.96000004
   17.63666725   71.07029724    4.90999985    2.96000004
   17.63972282   71.41870117    4.90999985    2.98000002
   17.64305496   69.54049683    4.90999985    2.98000002
   17.64638901   73.66269684    4.90999985    2.98000002
   17.64944458   70.41020203    4.90999985    2.98000002
   17.65416718   70.41020203    4.90999985    2.98000002
   17.65833282   73.68250275    4.90999985    2.96000004
   17.66166687   71.66020203    4.90999985    2.98000002
   17.66472244   72.15149689    4.90999985    2.98000002
   17.66805458   70.86910248    4.90999985    2.98000002
   17.67138863   70.92829895    4.90999985    2.98000002
   17.67444420   69.78029633    4.90999985    2.98000002
   17.67777634   70.79450226    4.90999985    2.98000002
   17.68083191   72.21600342    4.90999985    2.98000002
   17.68277740   70.95980072    4.90999985    2.98000002
   17.68444443   72.73040009    4.90999985    2.98000002
   17.68777657   71.29119873    4.90999985    2.96000004
   17.69111061   71.17099762    4.90999985    2.96000004
   17.69416618   69.71530151    4.90999985    2.98000002
   17.69749832   69.44989777    4.90999985    2.96000004
   17.70055580   71.20130157    4.90999985    2.96000004
   17.70527840   71.20130157    4.90999985    2.98000002
   17.70944595   68.48380280    4.90999985    2.96000004
   17.71277809   70.18800354    4.90999985    2.98000002
   17.71583366   70.89189911    4.90999985    2.98000002
   17.71916771   70.20539856    4.90999985    2.98000002
   17.72249985   71.05780029    4.90999985    2.98000002
   17.72555542   70.98390198    4.90999985    2.98000002
   17.72888947   73.35620117    4.90999985    2.96000004
   17.73222351   72.57089996    4.90999985    2.96000004
   17.73277855   71.33640289    4.90999985    2.98000002
   17.73555565   72.86679840    4.90999985    2.96000004
   17.73888969   72.31269836    4.90999985    2.96000004
   17.74222183   72.78679657    4.90999985    2.96000004
   17.74527740   71.89140320    4.90999985    2.96000004
   17.74861145   72.71679688    4.90999985    2.98000002
   17.75166702   71.68170166    4.90999985    2.98000002
   17.75666618   71.68170166    4.90999985    2.98000002
   17.76055527   69.50569916    4.90999985    2.96000004
   17.76388931   72.00219727    4.90999985    2.98000002
   17.76722145   72.47769928    4.90999985    2.96000004
   17.77027702   70.63680267    4.90999985    2.96000004
   17.77361107   71.51770020    4.90999985    2.96000004
   17.77694511   70.32499695    4.90999985    2.96000004
   17.78000069   71.56729889    4.90999985    2.98000002
   17.79694366   73.12670135    4.90999985    2.98000002
   17.79972076   71.81909943    4.90999985    2.96000004
   17.80305481   74.96769714    4.90999985    2.96000004
   17.80805397   74.96769714    4.90999985    2.96000004
   17.81194305   71.80909729    4.90999985    2.96000004
   17.81527710   71.16459656    4.90999985    2.98000002
   17.81861115   71.12290192    4.90999985    2.98000002
   17.82166672   69.93099976    4.90999985    2.98000002
   17.82500076   69.38020325    4.90999985    2.96000004
   17.82833481   68.70149994    4.90999985    2.96000004
   17.83139038   72.38690186    4.90999985    2.96000004
   17.83472252   69.61810303    4.90999985    2.96000004
   17.83777809   69.95189667    4.90999985    2.96000004
   17.84111214   70.40049744    4.90999985    2.96000004
   17.84444427   70.72299957    4.90999985    2.96000004
   17.84694481   70.36689758    4.90999985    2.96000004
   17.84805679   72.41300201    4.90999985    2.98000002
   17.85111237   75.11219788    4.90999985    2.98000002
   17.85444450   71.97910309    4.90999985    2.98000002
   17.85916710   71.97910309    4.90999985    2.98000002
   17.86333466   71.97789764    4.90999985    2.98000002
   17.86638832   70.17320251    4.90999985    2.96000004
   17.86972237   73.73329926    4.90999985    2.96000004
   17.87305641   69.91729736    4.90999985    2.96000004
   17.87611198   70.39769745    4.90999985    2.98000002
   17.87944412   69.78309631    4.90999985    2.98000002
   17.88249969   71.15239716    4.90999985    2.96000004
   17.88583374   70.33300018    4.90999985    2.98000002
   17.88916588   70.11979675    4.90999985    2.96000004
   17.89222145   68.80639648    4.90999985    2.96000004
   17.89555550   72.12419891    4.90999985    2.96000004
   17.89694405   69.68509674    4.90999985    2.98000002
   17.89916611   71.24130249    4.90999985    2.96000004
   17.90222168   72.08409882    4.90999985    2.98000002
   17.90555573   70.51069641    4.90999985    2.98000002
   17.91027832   70.51069641    4.90999985    2.96000004
   17.91444397   70.42230225    4.90999985    2.98000002
   17.91777802   71.08509827    4.90999985    2.98000002
   17.92083359   70.03820038    4.90999985    2.96000004
   17.92416573   70.18910217    4.90999985    2.98000002
   17.92722130   71.22350311    4.90999985    2.96000004
   17.93055534   68.97419739    4.90999985    2.98000002
   17.93388748   71.13600159    4.90999985    2.96000004
   17.93694305   70.71109772    4.90999985    2.96000004
   17.94027710   68.57859802    4.90999985    2.98000002
   17.94361115   72.20110321    4.90999985    2.96000004
   17.94666672   70.25740051    4.90999985    2.98000002
   17.94722176   69.32350159    4.90999985    2.98000002
   17.95055580   71.67630005    4.90999985    2.96000004
   17.95361137   72.64389801    4.90999985    2.96000004
   17.95694542   69.89759827    4.90999985    2.96000004
   17.96138954   69.89759827    4.90999985    2.96000004
   17.96555710   73.30989838    4.90999985    2.96000004
   17.96888924   73.07720184    4.90999985    2.96000004
   17.97194481   71.54239655    4.90999985    2.98000002
   17.97527885   74.04129791    4.90999985    2.96000004
   17.97861099   71.21189880    4.90999985    2.96000004
   17.98166656   69.32859802    4.90999985    2.96000004
   17.98500061   69.29509735    4.90999985    2.96000004
   17.98833275   70.03070068    4.90999985    2.98000002
   17.99138832   71.24140167    4.90999985    2.98000002
   17.99472237   71.73979950    4.90999985    2.98000002
   17.99722290   71.08830261    4.90999985    2.96000004
   17.99833298   72.09519958    4.90999985    2.98000002
   18.00166702   76.10600281    4.90999985    2.96000004
   18.00472260   70.05410004    4.90999985    2.96000004
   18.00805473   72.00430298    4.90999985    2.98000002
   18.01277733   72.00430298    4.90999985    2.96000004
   18.01666641   71.87110138    4.90999985    2.98000002
   18.02000046   72.10279846    4.90999985    2.96000004
   18.02333260   70.99430084    4.90999985    2.98000002
   18.02638817   72.32230377    4.90999985    2.96000004
   18.02972221   70.15440369    4.90999985    2.98000002
   18.03305435   70.06479645    4.90999985    2.96000004
   18.03610992   70.33139801    4.90999985    2.98000002
   18.03944397   70.03070068    4.90999985    3.00000000
   18.04249954   71.57620239    4.90999985    2.96000004
   18.04583359   70.43260193    4.90999985    2.98000002
   18.04722214   71.25789642    4.90999985    2.96000004
   18.04944420   73.15360260    4.90999985    2.96000004
   18.05249977   69.42839813    4.90999985    2.96000004
   18.05583191   70.79190063    4.90999985    2.98000002
   18.05916595   70.65720367    4.90999985    2.96000004
   18.06388855   70.65720367    4.90999985    2.96000004
   18.06805611   71.51159668    4.90999985    2.98000002
   18.07111168   72.30239868    4.90999985    2.96000004
   18.07444572   70.93830109    4.90999985    2.98000002
   18.07750130   73.39379883    4.90999985    2.98000002
   18.08083344   72.89769745    4.90999985    2.98000002
   18.08416748   71.27870178    4.90999985    2.96000004
   18.08722305   70.97740173    4.90999985    2.96000004
   18.09055710   71.59780121    4.90999985    2.96000004
   18.09388924   73.08670044    4.90999985    2.96000004
   18.09694481   72.28029633    4.90999985    2.96000004
   18.09749985   69.49720001    4.90999985    2.98000002
   18.10083389   71.70059967    4.90999985    2.98000002
   18.10416794   71.29479980    4.90999985    2.96000004
   18.10722351   71.51190186    4.90999985    2.96000004
   18.11055565   72.60790253    4.90999985    2.98000002
   18.11499977   72.60790253    4.90999985    2.96000004
   18.11916733   73.09449768    4.90999985    2.96000004
   18.12249947   70.24050140    4.90999985    2.96000004
   18.12555504   71.61170197    4.90999985    2.96000004
   18.12888908   71.14730072    4.90999985    2.96000004
   18.13194466   71.67209625    4.90999985    2.96000004
   18.13527679   72.96320343    4.90999985    2.98000002
   18.13861084   71.30780029    4.90999985    2.96000004
   18.14166641   74.38230133    4.90999985    2.98000002
   18.14500046   71.22250366    4.90999985    2.98000002
   18.14749908   73.44460297    4.90999985    2.96000004
   18.14861107   73.18820190    4.90999985    2.96000004
   18.15194321   74.16290283    4.90999985    2.96000004
   18.15499878   72.66600037    4.90999985    2.96000004
   18.15833282   72.36879730    4.90999985    2.96000004
   18.16166687   73.07460022    4.90999985    2.96000004
   18.16611099   73.07460022    4.90999985    2.96000004
   18.17027664   70.65299988    4.90999985    2.96000004
   18.17361069   71.86129761    4.90999985    2.96000004
   18.17666626   71.20770264    4.90999985    2.96000004
   18.18000031   72.59929657    4.90999985    2.96000004
   18.18333244   73.64240265    4.90999985    2.96000004
   18.18638802   70.52780151    4.90999985    2.94000006
   18.18972206   70.08280182    4.90999985    2.96000004
   18.19277763   71.09049988    4.90999985    2.96000004
   18.19610977   69.44760132    4.90999985    2.96000004
   18.19749832   69.78240204    4.90999985    2.96000004
   18.19972038   68.58010101    4.90999985    2.98000002
   18.20305634   73.64779663    4.90999985    2.98000002
   18.20611191   71.39700317    4.90999985    2.96000004
   18.20944595   72.47989655    4.90999985    2.96000004
   18.21277809   70.16590118    4.90999985    2.96000004
   18.21722221   70.16590118    4.90999985    2.98000002
   18.22138977   72.10179901    4.90999985    2.96000004
   18.22472191   73.58309937    4.90999985    2.96000004
   18.22805595   71.82119751    4.90999985    2.98000002
   18.23111153   71.57050323    4.90999985    2.98000002
   18.23444557   72.32150269    4.90999985    2.96000004
   18.23750114   71.31130219    4.90999985    2.98000002
   18.24083328   72.10630035    4.90999985    2.96000004
   18.24416733   71.98130035    4.90999985    2.96000004
   18.24722290   72.58850098    4.90999985    2.96000004
   18.24777794   73.63349915    4.90999985    2.96000004
   18.25111198   72.10140228    4.90999985    2.96000004
   18.25444412   68.55889893    4.90999985    2.96000004
   18.25749969   68.23539734    4.90999985    2.94000006
   18.26083374   71.33820343    4.90999985    2.96000004
   18.26388931   73.07270050    4.90999985    2.96000004
   18.26861000   73.07270050    4.90999985    2.96000004
   18.27277756   70.56700134    4.90999985    2.96000004
   18.27583313   72.09510040    4.90999985    2.96000004
   18.27916718   71.85420227    4.90999985    2.96000004
   18.28222275   68.80449677    4.90999985    2.96000004
   18.28555489   70.18830109    4.90999985    2.96000004
   18.28888893   70.01719666    4.90999985    2.96000004
   18.29194450   71.95539856    4.90999985    2.96000004
   18.29527664   69.68240356    4.90999985    2.96000004
   18.29777718   67.75659943    4.90999985    2.96000004
   18.29888916   70.46209717    4.90999985    2.96000004
   18.30222130   74.08489990    4.90999985    2.98000002
   18.30527687   69.22779846    4.90999985    2.98000002
   18.30861092   69.93579865    4.90999985    2.94000006
   18.31194305   69.07740021    4.90999985    2.96000004
   18.31499863   69.87359619    4.90999985    2.96000004
   18.31972313   69.87359619    4.90999985    2.94000006
   18.32389069   69.18900299    4.90999985    2.94000006
   18.32694626   73.66570282    4.90999985    2.96000004
   18.33027840   71.48850250    4.90999985    2.96000004
   18.33361244   70.17459869    4.90999985    2.96000004
   18.33666801   70.53399658    4.90999985    2.96000004
   18.34000015   70.08249664    4.90999985    2.96000004
   18.34333420   73.72319794    4.90999985    2.94000006
   18.34638977   69.03309631    4.90999985    2.94000006
   18.34777832   70.85549927    4.90999985    2.94000006
   18.35000038   71.74449921    4.90999985    2.96000004
   18.35333443   70.13369751    4.90999985    2.94000006
   18.35639000   71.02559662    4.90999985    2.94000006
   18.35972214   70.62049866    4.90999985    2.96000004
   18.36305618   72.87439728    4.90999985    2.96000004
   18.36611176   73.61299896    4.90999985    2.96000004
   18.37083435   73.61299896    4.90999985    2.96000004
   18.37500000   70.15779877    4.90999985    2.96000004
   18.37833405   69.45670319    4.90999985    2.94000006
   18.38138962   72.74210358    4.90999985    2.96000004
   18.38472176   68.96009827    4.90999985    2.94000006
   18.38805580   71.23709869    4.90999985    2.96000004
   18.39111137   70.30539703    4.90999985    2.96000004
   18.39444351   70.55249786    4.90999985    2.96000004
   18.39749908   69.21399689    4.90999985    2.94000006
   18.39805603   72.82160187    4.90999985    2.94000006
   18.40138817   71.73190308    4.90999985    2.94000006
   18.40472221   71.00679779    4.90999985    2.96000004
   18.40777779   70.21820068    4.90999985    2.94000006
   18.41110992   70.78579712    4.90999985    2.94000006
   18.41444397   69.81659698    4.90999985    2.94000006
   18.41749954   71.11340332    4.90999985    2.94000006
   18.42194366   71.11340332    4.90999985    2.94000006
   18.42611122   71.34220123    4.90999985    2.94000006
   18.42944336   70.44689941    4.90999985    2.94000006
   18.43277740   70.43370056    4.90999985    2.96000004
   18.43583298   72.76999664    4.90999985    2.94000006
   18.43916512   71.51300049    4.90999985    2.94000006
   18.44222069   72.87310028    4.90999985    2.94000006
   18.44555473   72.36849976    4.90999985    2.94000006
   18.44805527   72.62670135    4.90999985    2.94000006
   18.44916534   70.22660065    4.90999985    2.96000004
   18.45250130   70.22029877    4.90999985    2.96000004
   18.45555687   71.32140350    4.90999985    2.94000006
   18.45888901   70.58550262    4.90999985    2.94000006
   18.46194458   72.65899658    4.90999985    2.96000004
   18.46527863   70.92250061    4.90999985    2.94000006
   18.46861076   74.54340363    4.90999985    2.96000004
   18.47333336   74.54340363    4.90999985    2.94000006
   18.47750092   69.36579895    4.90999985    2.96000004
   18.48055649   71.97720337    4.90999985    2.96000004
   18.48388863   69.90730286    4.90999985    2.96000004
   18.48694420   69.92919922    4.90999985    2.96000004
   18.49027824   68.53540039    4.90999985    2.96000004
   18.49361229   70.81320190    4.90999985    2.94000006
   18.49666786   70.18029785    4.90999985    2.94000006
   18.49805641   71.45659637    4.90999985    2.94000006
   18.50027847   71.77970123    4.90999985    2.94000006
   18.50361061   68.53549957    4.90999985    2.94000006
   18.50666618   69.92590332    4.90999985    2.96000004
   18.51000023   73.62799835    4.90999985    2.94000006
   18.51333427   74.30159760    4.90999985    2.94000006
   18.51638794   71.46759796    4.90999985    2.96000004
   18.51972198   71.41799927    4.90999985    2.94000006
   18.52444458   71.41799927    4.90999985    2.94000006
   18.52861023   72.21219635    4.90999985    2.94000006
   18.53166580   72.21060181    4.90999985    2.94000006
   18.53499985   72.97989655    4.90999985    2.94000006
   18.53833199   72.80590057    4.90999985    2.94000006
   18.54138756   70.76619720    4.90999985    2.94000006
   18.54472160   70.51280212    4.90999985    2.93000007
   18.54805565   73.89379883    4.90999985    2.94000006
   18.54833221   72.00630188    4.90999985    2.94000006
   18.55166626   71.98210144    4.90999985    2.94000006
   18.55499840   69.81549835    4.90999985    2.94000006
   18.55805397   70.74240112    4.90999985    2.94000006
   18.56138802   70.62989807    4.90999985    2.94000006
   18.56472206   73.67320251    4.90999985    2.94000006
   18.56777954   71.36489868    4.90999985    2.93000007
   18.57111168   70.60070038    4.90999985    2.93000007
   18.57555580   70.60070038    4.90999985    2.94000006
   18.57972336   73.85060120    4.90999985    2.94000006
   18.58305550   72.36199951    4.90999985    2.94000006
   18.58611107   71.89569855    4.90999985    2.94000006
   18.58944511   71.86129761    4.90999985    2.94000006
   18.59277916   68.51809692    4.90999985    2.93000007
   18.59583473   73.27770233    4.90999985    2.94000006
   18.59833336   75.31559753    4.90999985    2.94000006
   18.59944534   70.46330261    4.90999985    2.94000006
   18.60277748   69.86910248    4.90999985    2.96000004
   18.60583305   71.77500153    4.90999985    2.94000006
   18.60916710   73.85189819    4.90999985    2.94000006
   18.61250114   72.26100159    4.90999985    2.94000006
   18.61555672   71.69390106    4.90999985    2.96000004
   18.61888885   73.51730347    4.90999985    2.96000004
   18.62194443   71.87550354    4.90999985    2.94000006
   18.62666702   71.87550354    4.90999985    2.94000006
   18.63083267   70.46009827    4.90999985    2.96000004
   18.63416672   71.25520325    4.90999985    2.96000004
   18.63750076   71.58920288    4.90999985    2.96000004
   18.64055634   71.61270142    4.90999985    2.94000006
   18.64388847   73.75959778    4.90999985    2.94000006
   18.64694405   77.16349792    4.90999985    2.94000006
   18.64861107   71.69709778    4.90999985    2.94000006
   18.65055466   71.36750031    4.90999985    2.94000006
   18.65388870   72.29049683    4.90999985    2.94000006
   18.65694427   72.38410187    4.90999985    2.94000006
   18.66027832   71.17720032    4.90999985    2.94000006
   18.66361046   73.20909882    4.90999985    2.94000006
   18.66666603   73.06140137    4.90999985    2.94000006
   18.67000008   72.09429932    4.90999985    2.94000006
   18.67333221   70.73179626    4.90999985    2.94000006
   18.67805481   70.73179626    4.90999985    2.93000007
   18.68222237   73.42150116    4.90999985    2.94000006
   18.68527603   70.95059967    4.90999985    2.94000006
   18.68861008   70.56529999    4.90999985    2.94000006
   18.69166565   72.37329865    4.90999985    2.94000006
   18.69499969   74.77719879    4.90999985    2.94000006
   18.69833183   72.40059662    4.90999985    2.94000006
   18.69888878   71.02130127    4.90999985    2.94000006
   18.70194435   71.11750031    4.90999985    2.94000006
   18.70527840   72.28489685    4.90999985    2.94000006
   18.70833397   73.30180359    4.90999985    2.96000004
   18.71166801   70.72190094    4.90999985    2.94000006
   18.71500015   69.89669800    4.90999985    2.94000006
   18.71805573   73.71389771    4.90999985    2.94000006
   18.72138977   69.66249847    4.90999985    2.94000006
   18.72472191   73.35410309    4.90999985    2.94000006
   18.72916794   73.35410309    4.90999985    2.94000006
   18.73333359   71.43139648    4.90999985    2.94000006
   18.73638916   71.41410065    4.90999985    2.94000006
   18.73972321   73.55639648    4.90999985    2.94000006
   18.74305534   71.04399872    4.90999985    2.94000006
   18.74611092   70.45059967    4.90999985    2.94000006
   18.74888992   72.10320282    4.90999985    2.93000007
   18.74972153   70.51969910    4.90999985    2.94000006
   18.75305557   71.72200012    4.90999985    2.94000006
   18.75611115   73.86799622    4.90999985    2.94000006
   18.75944519   72.17109680    4.90999985    2.94000006
   18.76277733   72.59320068    4.90999985    2.94000006
   18.76583290   74.87879944    4.90999985    2.93000007
   18.76916695   72.56179810    4.90999985    2.93000007
   18.77249908   73.36560059    4.90999985    2.93000007
   18.77555466   70.99210358    4.90999985    2.93000007
   18.78027725   70.99210358    4.90999985    2.93000007
   18.78444481   71.47170258    4.90999985    2.93000007
   18.78777695   71.96219635    4.90999985    2.94000006
   18.79083252   69.67749786    4.90999985    2.94000006
   18.79416656   72.84390259    4.90999985    2.94000006
   18.81388855   70.75070190    4.90999985    2.94000006
   18.81444359   71.39450073    4.90999985    2.94000006
   18.81750107   72.06749725    4.90999985    2.94000006
   18.82083511   71.11440277    4.90999985    2.93000007
   18.82416725   73.52410126    4.90999985    2.94000006
   18.82722282   71.12930298    4.90999985    2.94000006
   18.83139038   71.12930298    4.90999985    2.94000006
   18.83555603   71.83350372    4.90999985    2.94000006
   18.83889008   71.55870056    4.90999985    2.94000006
   18.84194565   72.43840027    4.90999985    2.94000006
   18.84527779   71.59889984    4.90999985    2.94000006
   18.84861183   72.81700134    4.90999985    2.96000004
   18.85166740   70.74320221    4.90999985    2.94000006
   18.85499954   71.35540009    4.90999985    2.94000006
   18.85833359   70.47380066    4.90999985    2.94000006
   18.86138916   69.82119751    4.90999985    2.94000006
   18.86444473   69.04039764    4.90999985    2.94000006
   18.86499977   71.68810272    4.90999985    2.94000006
   18.86833382   69.91549683    4.90999985    2.94000006
   18.87166595   70.76110077    4.90999985    2.94000006
   18.87472153   71.27040100    4.90999985    2.96000004
   18.87805557   71.45449829    4.90999985    2.94000006
   18.88277817   71.45449829    4.90999985    2.94000006
   18.88694382   69.63300323    4.90999985    2.93000007
   18.88999939   72.54060364    4.90999985    2.94000006
   18.89333344   70.39260101    4.90999985    2.94000006
   18.89638901   71.70890045    4.90999985    2.94000006
   18.89972115   70.55010223    4.90999985    2.94000006
   18.90305519   71.06430054    4.90999985    2.94000006
   18.90611076   70.24539948    4.90999985    2.94000006
   18.90944481   70.26560211    4.90999985    2.94000006
   18.91277695   72.21820068    4.90999985    2.94000006
   18.91444397   69.90399933    4.90999985    2.94000006
   18.91611099   70.45140076    4.90999985    2.94000006
   18.91944313   71.04910278    4.90999985    2.94000006
   18.92277718   68.65119934    4.90999985    2.94000006
   18.92583275   69.77809906    4.90999985    2.94000006
   18.92916679   70.65979767    4.90999985    2.94000006
   18.93388748   70.65979767    4.90999985    2.93000007
   18.93805504   73.64360046    4.90999985    2.94000006
   18.94111061   70.57460022    4.90999985    2.93000007
   18.94444275   72.55829620    4.90999985    2.93000007
   18.94777679   71.57369995    4.90999985    2.94000006
   18.95083427   74.10150146    4.90999985    2.93000007
   18.95416832   70.09529877    4.90999985    2.94000006
   18.95750046   71.10160065    4.90999985    2.93000007
   18.96055603   72.44640350    4.90999985    2.93000007
   18.96389008   71.46640015    4.90999985    2.93000007
   18.96444511   71.65129852    4.90999985    2.93000007
   18.96722221   66.88800049    4.90999985    2.94000006
   18.97055626   70.32669830    4.90999985    2.94000006
   18.97389030   70.16989899    4.90999985    2.93000007
   18.97694588   72.16549683    4.90999985    2.93000007
   18.98027802   69.19380188    4.90999985    2.94000006
   18.98500061   69.19380188    4.90999985    2.93000007
   18.98916626   73.36039734    4.90999985    2.94000006
   18.99250031   71.02719879    4.90999985    2.93000007
   18.99555588   70.60970306    4.90999985    2.93000007
   18.99888992   70.68759918    4.90999985    2.93000007
   19.00194359   72.16190338    4.90999985    2.94000006
   19.00527763   66.78839874    4.90999985    2.94000006
   19.00861168   68.89939880    4.90999985    2.94000006
   19.01166725   70.35019684    4.90999985    2.93000007
   19.01444435   70.05339813    4.90999985    2.93000007
   19.01527786   70.69180298    4.90999985    2.93000007
   19.01861000   71.29799652    4.90999985    2.93000007
   19.02194405   70.50150299    4.90999985    2.93000007
   19.02499962   71.03369904    4.90999985    2.94000006
   19.02833366   69.43419647    4.90999985    2.94000006
   19.03166580   70.21009827    4.90999985    2.93000007
   19.03610992   70.21009827    4.90999985    2.94000006
   19.04027748   69.71299744    4.90999985    2.94000006
   19.04361153   70.62860107    4.90999985    2.94000006
   19.04666710   67.64730072    4.90999985    2.93000007
   19.04999924   69.84249878    4.90999985    2.93000007
   19.05333328   69.01660156    4.90999985    2.94000006
   19.05666542   70.83799744    4.90999985    2.94000006
   19.05972099   70.48940277    4.90999985    2.94000006
   19.06305504   69.91149902    4.90999985    2.94000006
   19.06472206   69.62729645    4.90999985    2.94000006
   19.06638718   69.65799713    4.90999985    2.93000007
   19.06972313   68.77079773    4.90999985    2.94000006
   19.07305717   69.93920135    4.90999985    2.94000006
   19.07611275   71.62249756    4.90999985    2.94000006
   19.07944489   71.22499847    4.90999985    2.94000006
   19.08277893   70.73390198    4.90999985    2.94000006
   19.08750153   70.73390198    4.90999985    2.94000006
   19.09138870   72.53340149    4.90999985    2.94000006
   19.09472275   71.62439728    4.90999985    2.94000006
   19.09805679   73.85019684    4.90999985    2.94000006
   19.10111237   71.54360199    4.90999985    2.94000006
   19.10444450   73.90059662    4.90999985    2.94000006
   19.10777855   70.26049805    4.90999985    2.96000004
   19.11083412   71.51049805    4.90999985    2.94000006
   19.11416626   72.42279816    4.90999985    2.94000006
   19.11472321   72.61979675    4.90999985    2.94000006
   19.11750031   71.43530273    4.90999985    2.94000006
   19.12083435   72.05470276    4.90999985    2.94000006
   19.12416649   74.67330170    4.90999985    2.93000007
   19.12722206   72.72090149    4.90999985    2.93000007
   19.13055611   71.49079895    4.90999985    2.94000006
   19.13388824   71.26100159    4.90999985    2.93000007
   19.13861084   71.26100159    4.90999985    2.93000007
   19.14277840   72.68710327    4.90999985    2.94000006
   19.14583397   70.42220306    4.90999985    2.94000006
   19.14916611   69.92590332    4.90999985    2.93000007
   19.15250015   71.05239868    4.90999985    2.94000006
   19.15555573   71.50160217    4.90999985    2.94000006
   19.15888786   69.11710358    4.90999985    2.93000007
   19.16222191   68.71269989    4.90999985    2.93000007
   19.16472244   68.69799805    4.90999985    2.94000006
   19.16583252   68.56919861    4.90999985    2.93000007
   19.16888809   70.50890350    4.90999985    2.93000007
   19.17222214   72.51080322    4.90999985    2.94000006
   19.17527771   71.62400055    4.90999985    2.93000007
   19.17860985   69.56340027    4.90999985    2.93000007
   19.18194389   70.56880188    4.90999985    2.94000006
   19.18499947   70.49539948    4.90999985    2.93000007
   19.18972206   70.49539948    4.90999985    2.93000007
   19.19388771   73.02480316    4.90999985    2.91000009
   19.19722176   71.86779785    4.90999985    2.93000007
   19.20027924   69.73410034    4.90999985    2.93000007
   19.20361137   70.11049652    4.90999985    2.93000007
   19.20666695   68.90370178    4.90999985    2.93000007
   19.21000099   69.44010162    4.90999985    2.93000007
   19.21333504   68.50710297    4.90999985    2.94000006
   19.21472359   68.85140228    4.90999985    2.94000006
   19.21694565   69.19909668    4.90999985    2.94000006
   19.22000122   67.22750092    4.90999985    2.93000007
   19.22333336   69.63549805    4.90999985    2.91000009
   19.22638893   69.39299774    4.90999985    2.91000009
   19.22972298   69.27330017    4.90999985    2.93000007
   19.23305511   69.99649811    4.90999985    2.93000007
   19.23611069   68.19349670    4.90999985    2.93000007
   19.24083328   68.19349670    4.90999985    2.91000009
   19.24500084   70.80829620    4.90999985    2.93000007
   19.24833298   69.05750275    4.90999985    2.93000007
   19.25138855   69.55709839    4.90999985    2.94000006
   19.25472260   69.34230042    4.90999985    2.93000007
   19.25805473   71.08989716    4.90999985    2.93000007
   19.26138878   71.24559784    4.90999985    2.93000007
   19.26444435   68.70410156    4.90999985    2.93000007
   19.26499939   68.68379974    4.90999985    2.93000007
   19.26833344   69.26390076    4.90999985    2.93000007
   19.27138901   69.05819702    4.90999985    2.93000007
   19.27472115   69.98570251    4.90999985    2.93000007
   19.27805519   71.49569702    4.90999985    2.93000007
   19.28111076   71.49459839    4.90999985    2.94000006
   19.28444481   70.11650085    4.90999985    2.94000006
   19.28777695   72.81330109    4.90999985    2.94000006
   19.29222107   72.81330109    4.90999985    2.93000007
   19.29611015   73.92089844    4.90999985    2.93000007
   19.29944420   72.09259796    4.90999985    2.93000007
   19.30277634   71.57510376    4.90999985    2.93000007
   19.30583191   71.76020050    4.90999985    2.93000007
   19.30916595   71.43550110    4.90999985    2.93000007
   19.31250000   69.56109619    4.90999985    2.93000007
   19.31499863   71.02880096    4.90999985    2.93000007
   19.31611061   73.23729706    4.90999985    2.91000009
   19.31916809   71.45220184    4.90999985    2.93000007
   19.32250023   68.17120361    4.90999985    2.94000006
   19.32583427   69.26660156    4.90999985    2.93000007
   19.32888985   70.49829865    4.90999985    2.93000007
   19.33222389   71.22200012    4.90999985    2.93000007
   19.33555603   72.63330078    4.90999985    2.93000007
   19.33861160   73.23329926    4.90999985    2.93000007
   19.34333420   73.23329926    4.90999985    2.93000007
   19.34749985   70.52529907    4.90999985    2.93000007
   19.35055542   68.95549774    4.90999985    2.93000007
   19.35388947   68.83450317    4.90999985    2.93000007
   19.35722351   69.15499878    4.90999985    2.93000007
   19.36027908   70.65309906    4.90999985    2.94000006
   19.36361122   70.25289917    4.90999985    2.93000007
   19.36499977   72.24320221    4.90999985    2.93000007
   19.36722183   70.00669861    4.90999985    2.93000007
   19.37027740   69.20400238    4.90999985    2.93000007
   19.37361145   72.28369904    4.90999985    2.93000007
   19.37694550   70.17469788    4.90999985    2.93000007
   19.38000107   70.80310059    4.90999985    2.93000007
   19.38333321   69.30570221    4.90999985    2.93000007
   19.38666725   69.40789795    4.90999985    2.93000007
   19.38972282   70.65170288    4.90999985    2.94000006
   19.39444351   70.65170288    4.90999985    2.93000007
   19.39861107   71.52490234    4.90999985    2.93000007
   19.40194321   72.72260284    4.90999985    2.93000007
   19.40499878   68.72570038    4.90999985    2.93000007
   19.40833282   69.70610046    4.90999985    2.93000007
   19.41138840   70.31880188    4.90999985    2.93000007
   19.41472244   71.18039703    4.90999985    2.93000007
   19.41527748   73.74420166    4.90999985    2.93000007
   19.41860962   69.89969635    4.90999985    2.93000007
   19.42166519   71.16400146    4.90999985    2.93000007
   19.42499924   70.24109650    4.90999985    2.93000007
   19.42833328   72.66909790    4.90999985    2.93000007
   19.43138885   70.64430237    4.90999985    2.91000009
   19.43472099   72.83110046    4.90999985    2.91000009
   19.43777657   72.63040161    4.90999985    2.93000007
   19.44111061   71.59140015    4.90999985    2.93000007
   19.44555473   71.59140015    4.90999985    2.93000007
   19.44972038   70.79270172    4.90999985    2.93000007
   19.45305634   69.29660034    4.90999985    2.94000006
   19.45611191   71.17680359    4.90999985    2.93000007
   19.45944595   72.11969757    4.90999985    2.93000007
   19.46277809   72.80770111    4.90999985    2.93000007
   19.46527863   72.17749786    4.90999985    2.93000007
   19.46638870   70.83799744    4.90999985    2.93000007
   19.46944427   71.90509796    4.90999985    2.93000007
   19.47277832   72.06479645    4.90999985    2.93000007
   19.47583389   71.24710083    4.90999985    2.93000007
   19.47916794   70.83830261    4.90999985    2.93000007
   19.48250008   72.97679901    4.90999985    2.93000007
   19.48555565   71.61139679    4.90999985    2.93000007
   19.48888969   70.83589935    4.90999985    2.93000007
   19.49222183   72.22609711    4.90999985    2.93000007
   19.49694443   72.22609711    4.90999985    2.93000007
   19.50083351   69.39479828    4.90999985    2.93000007
   19.50416756   70.41190338    4.90999985    2.93000007
   19.50749969   74.63919830    4.90999985    2.93000007
   19.51055527   77.32029724    4.90999985    2.93000007
   19.51388931   72.57969666    4.90999985    2.93000007
   19.51527786   72.97769928    4.90999985    2.93000007
   19.51749992   71.24240112    4.90999985    2.93000007
   19.52055550   73.19460297    4.90999985    2.93000007
   19.52388954   75.21340179    4.90999985    2.93000007
   19.52722168   73.91059875    4.90999985    2.93000007
   19.53027725   73.27189636    4.90999985    2.93000007
   19.53361130   71.92459869    4.90999985    2.94000006
   19.53694344   71.09100342    4.90999985    2.91000009
   19.53999901   70.73860168    4.90999985    2.93000007
   19.54333305   69.63659668    4.90999985    2.93000007
   19.54805565   69.63659668    4.90999985    2.93000007
   19.55222130   70.91940308    4.90999985    2.93000007
   19.55527687   73.64150238    4.90999985    2.93000007
   19.55861092   70.53820038    4.90999985    2.93000007
   19.56194305   71.33560181    4.90999985    2.93000007
   19.56499863   70.85209656    4.90999985    2.93000007
   19.56555557   71.22360229    4.90999985    2.93000007
   19.56888962   74.34069824    4.90999985    2.93000007
   19.57222366   72.21219635    4.90999985    2.93000007
   19.57527924   73.09410095    4.90999985    2.91000009
   19.57861137   75.23269653    4.90999985    2.91000009
   19.58194542   71.70839691    4.90999985    2.91000009
   19.58500099   69.11119843    4.90999985    2.91000009
   19.58833313   71.86119843    4.90999985    2.91000009
   19.59138870   73.07540131    4.90999985    2.91000009
   19.59472275   71.04270172    4.90999985    2.91000009
   19.59916687   71.04270172    4.90999985    2.93000007
   19.60333443   72.49880219    4.90999985    2.91000009
   19.60666656   70.33950043    4.90999985    2.91000009
   19.60972214   69.62899780    4.90999985    2.93000007
   19.61305618   69.68419647    4.90999985    2.93000007
   19.61555672   69.49440002    4.90999985    2.93000007
   19.61666679   70.30210114    4.90999985    2.93000007
   19.62000084   70.07250214    4.90999985    2.93000007
   19.62305641   70.13439941    4.90999985    2.93000007
   19.62638855   69.46900177    4.90999985    2.93000007
   19.62972260   70.63960266    4.90999985    2.91000009
   19.63277817   73.64250183    4.90999985    2.93000007
   19.63611031   72.64710236    4.90999985    2.91000009
   19.63916588   69.30639648    4.90999985    2.91000009
   19.64249992   70.44110107    4.90999985    2.93000007
   19.64583397   70.00589752    4.90999985    2.91000009
   19.65027809   70.00589752    4.90999985    2.91000009
   19.65444374   69.37239838    4.90999985    2.91000009
   19.65777779   69.28910065    4.90999985    2.93000007
   19.66083336   70.12619781    4.90999985    2.91000009
   19.66416550   72.90859985    4.90999985    2.91000009
   19.66555595   72.03849792    4.90999985    2.91000009
   19.66777802   71.67449951    4.90999985    2.91000009
   19.67111015   71.71360016    4.90999985    2.91000009
   19.67416573   69.12039948    4.90999985    2.93000007
   19.67749977   72.36699677    4.90999985    2.91000009
   19.68083191   72.41220093    4.90999985    2.93000007
   19.68388748   70.56559753    4.90999985    2.91000009
   19.68722153   68.42810059    4.90999985    2.93000007
   19.69027710   69.04360199    4.90999985    2.93000007
   19.69361115   72.45520020    4.90999985    2.93000007
   19.69694328   70.94999695    4.90999985    2.91000009
   19.70166779   70.94999695    4.90999985    2.91000009
   19.70583344   71.46179962    4.90999985    2.93000007
   19.70888901   71.02169800    4.90999985    2.93000007
   19.71222305   72.23269653    4.90999985    2.93000007
   19.71555710   70.78309631    4.90999985    2.91000009
   19.71583366   71.95639801    4.90999985    2.93000007
   19.71916771   72.50309753    4.90999985    2.93000007
   19.72249985   70.44779968    4.90999985    2.93000007
   19.72555542   69.34609985    4.90999985    2.91000009
   19.72888947   70.88439941    4.90999985    2.93000007
   19.73222351   70.39679718    4.90999985    2.93000007
   19.73527718   71.73770142    4.90999985    2.93000007
   19.73861122   71.75219727    4.90999985    2.93000007
   19.74166679   71.08869934    4.90999985    2.91000009
   19.74500084   70.53579712    4.90999985    2.91000009
   19.74833298   70.92440033    4.90999985    2.93000007
   19.75277710   70.92440033    4.90999985    2.93000007
   19.75694466   74.03649902    4.90999985    2.91000009
   19.76000023   73.53140259    4.90999985    2.91000009
   19.76333427   73.59690094    4.90999985    2.93000007
   19.76583290   71.85919952    4.90999985    2.91000009
   19.76694489   72.78880310    4.90999985    2.91000009
   19.77027702   74.66539764    4.90999985    2.91000009
   19.77333260   73.68219757    4.90999985    2.93000007
   19.77666664   69.90329742    4.90999985    2.91000009
   19.78000069   69.66069794    4.90999985    2.91000009
   19.78305435   72.35150146    4.90999985    2.91000009
   19.78638840   70.89669800    4.90999985    2.93000007
   19.78944397   71.75360107    4.90999985    2.91000009
   19.79277802   72.04889679    4.90999985    2.91000009
   19.79611015   71.13249969    4.90999985    2.91000009
   19.79916573   74.19090271    4.90999985    2.91000009
   19.80388832   74.19090271    4.90999985    2.93000007
   19.80805397   72.16799927    4.90999985    2.93000007
   19.81138802   73.08830261    4.90999985    2.91000009
   19.83055687   70.15129852    4.90999985    2.91000009
   19.83111191   70.41860199    4.90999985    2.91000009
   19.83416748   71.99340057    4.90999985    2.91000009
   19.83750153   74.24060059    4.90999985    2.91000009
   19.84083366   72.89099884    4.90999985    2.91000009
   19.84388924   75.27559662    4.90999985    2.91000009
   19.84722328   74.05419922    4.90999985    2.91000009
   19.85027885   73.39990234    4.90999985    2.91000009
   19.85527802   73.39990234    4.90999985    2.91000009
   19.85944557   71.13909912    4.90999985    2.91000009
   19.86250114   70.89150238    4.90999985    2.91000009
   19.86583328   69.61920166    4.90999985    2.89000010
   19.86888885   71.94120026    4.90999985    2.91000009
   19.87222290   72.54630280    4.90999985    2.91000009
   19.87555504   69.98829651    4.90999985    2.91000009
   19.87861061   73.28559875    4.90999985    2.91000009
   19.88055611   72.59410095    4.90999985    2.91000009
   19.88222313   71.00229645    4.90999985    2.91000009
   19.88555527   72.70960236    4.90999985    2.91000009
   19.88888931   72.86340332    4.90999985    2.91000009
   19.89194489   72.43430328    4.90999985    2.91000009
   19.89527702   71.90730286    4.90999985    2.91000009
   19.89861107   72.25170135    4.90999985    2.89000010
   19.90166664   71.28320313    4.90999985    2.91000009
   19.90638924   71.28320313    4.90999985    2.91000009
   19.91055489   71.99839783    4.90999985    2.89000010
   19.91388893   71.28019714    4.90999985    2.91000009
   19.91694450   69.92949677    4.90999985    2.91000009
   19.92027664   70.41480255    4.90999985    2.91000009
   19.92333221   70.91290283    4.90999985    2.91000009
   19.92666626   70.37500000    4.90999985    2.89000010
   19.93000031   71.13490295    4.90999985    2.91000009
   19.93055534   71.94960022    4.90999985    2.89000010
   19.93333244   72.21640015    4.90999985    2.89000010
   19.93666649   70.97339630    4.90999985    2.91000009
   19.93999863   71.58969879    4.90999985    2.91000009
   19.94305420   72.96240234    4.90999985    2.89000010
   19.94638824   73.03350067    4.90999985    2.89000010
   19.94972038   72.73490143    4.90999985    2.91000009
   19.95277786   71.57669830    4.90999985    2.91000009
   19.95750046   71.57669830    4.90999985    2.89000010
   19.96166801   74.18789673    4.90999985    2.89000010
   19.96500015   72.47429657    4.90999985    2.89000010
   19.96805573   71.00379944    4.90999985    2.89000010
   19.97138977   72.71360016    4.90999985    2.89000010
   19.97472191   74.44750214    4.90999985    2.89000010
   19.97777748   73.73169708    4.90999985    2.89000010
   19.98055649   70.76319885    4.90999985    2.89000010
   19.98139000   74.27619934    4.90999985    2.91000009
   19.98472214   72.72760010    4.90999985    2.89000010
   19.98805618   72.25070190    4.90999985    2.91000009
   19.99111176   71.28260040    4.90999985    2.91000009
   19.99444389   70.62409973    4.90999985    2.89000010
   19.99777794   70.07790375    4.90999985    2.91000009
   20.00083351   72.40789795    4.90999985    2.89000010
   20.00416756   73.66770172    4.90999985    2.89000010
   20.00861168   73.66770172    4.90999985    2.89000010
   20.01277733   72.51380157    4.90999985    2.89000010
   20.01611137   70.62709808    4.90999985    2.89000010
   20.01944351   71.49220276    4.90999985    2.89000010
   20.02249908   71.45290375    4.90999985    2.91000009
   20.02583313   69.98500061    4.90999985    2.91000009
   20.02888870   71.92489624    4.90999985    2.89000010
   20.03055573   70.63909912    4.90999985    2.89000010
   20.03249931   70.72530365    4.90999985    2.89000010
   20.03583336   73.00640106    4.90999985    2.89000010
   20.03916550   72.96849823    4.90999985    2.89000010
   20.04222107   72.75980377    4.90999985    2.89000010
   20.04555511   71.78919983    4.90999985    2.89000010
   20.04861069   75.72920227    4.90999985    2.89000010
   20.05194283   75.55829620    4.90999985    2.89000010
   20.05527687   72.91699982    4.90999985    2.89000010
   20.05999947   72.91699982    4.90999985    2.89000010
   20.06388855   71.37709808    4.90999985    2.89000010
   20.06722260   72.55560303    4.90999985    2.89000010
   20.07055664   75.36370087    4.90999985    2.86999989
   20.07361221   75.99389648    4.90999985    2.89000010
   20.07694626   75.90429688    4.90999985    2.89000010
   20.08027840   73.71309662    4.90999985    2.86999989
   20.08083344   77.52320099    4.90999985    2.89000010
   20.08388901   75.43129730    4.90999985    2.89000010
   20.08722305   72.47720337    4.90999985    2.86999989
   20.09027863   70.78790283    4.90999985    2.89000010
   20.09361267   71.04090118    4.90999985    2.89000010
   20.09694481   73.30069733    4.90999985    2.89000010
   20.10000038   71.86280060    4.90999985    2.89000010
   20.10333443   76.09940338    4.90999985    2.89000010
   20.10639000   70.75350189    4.90999985    2.89000010
   20.11111069   70.75350189    4.90999985    2.89000010
   20.11527824   71.84220123    4.90999985    2.89000010
   20.11833382   72.55870056    4.90999985    2.89000010
   20.12166595   71.36489868    4.90999985    2.89000010
   20.12500000   72.34179688    4.90999985    2.89000010
   20.12805557   72.74259949    4.90999985    2.89000010
   20.13083267   74.52310181    4.90999985    2.89000010
   20.13166618   71.83070374    4.90999985    2.89000010
   20.13500023   72.46189880    4.90999985    2.89000010
   20.13805580   73.12349701    4.90999985    2.89000010
   20.14138794   70.53880310    4.90999985    2.89000010
   20.14472198   73.95130157    4.90999985    2.89000010
   20.14777756   71.88490295    4.90999985    2.86999989
   20.15111160   71.33070374    4.90999985    2.86999989
   20.15416718   71.15540314    4.90999985    2.89000010
   20.15749931   70.36589813    4.90999985    2.86999989
   20.16222191   70.36589813    4.90999985    2.86999989
   20.16638756   71.66750336    4.90999985    2.89000010
   20.16972160   71.88430023    4.90999985    2.89000010
   20.17277718   74.26670074    4.90999985    2.89000010
   20.17611122   72.37259674    4.90999985    2.86999989
   20.17916679   71.98529816    4.90999985    2.86999989
   20.18083191   69.35130310    4.90999985    2.86999989
   20.18277740   74.12650299    4.90999985    2.86999989
   20.18610954   72.51360321    4.90999985    2.86999989
   20.18916512   73.01629639    4.90999985    2.86999989
   20.19249916   72.97070313    4.90999985    2.86999989
   20.19583321   72.75800323    4.90999985    2.86999989
   20.19888878   73.02899933    4.90999985    2.86999989
   20.20222282   71.54399872    4.90999985    2.89000010
   20.20555687   73.67790222    4.90999985    2.86999989
   20.20861244   71.76170349    4.90999985    2.86999989
   20.21333504   71.76170349    4.90999985    2.86999989
   20.21750069   75.58100128    4.90999985    2.86999989
   20.22083473   69.81759644    4.90999985    2.86999989
   20.22389030   72.23619843    4.90999985    2.86999989
   20.22722244   75.34799957    4.90999985    2.86999989
   20.23055649   73.90080261    4.90999985    2.86999989
   20.23111153   73.30889893    4.90999985    2.86999989
   20.23416710   72.49169922    4.90999985    2.86999989
   20.23750114   74.21269989    4.90999985    2.86999989
   20.24083328   73.13680267    4.90999985    2.86999989
   20.24388885   75.88629913    4.90999985    2.86999989
   20.24722290   73.10089874    4.90999985    2.86999989
   20.25027847   70.33300018    4.90999985    2.86999989
   20.25361061   71.94889832    4.90999985    2.86999989
   20.25694466   71.88760376    4.90999985    2.86999989
   20.26000023   73.35880280    4.90999985    2.86999989
   20.26472282   73.35880280    4.90999985    2.86999989
   20.26861000   71.46829987    4.90999985    2.86999989
   20.27194405   73.24669647    4.90999985    2.86999989
   20.27527809   70.81649780    4.90999985    2.86999989
   20.27833366   72.95850372    4.90999985    2.86999989
   20.28111076   76.92610168    4.90999985    2.86999989
   20.28194427   71.67120361    4.90999985    2.86999989
   20.28527641   69.04340363    4.90999985    2.84999990
   20.28861046   78.48729706    4.90999985    2.84999990
   20.29166603   77.27200317    4.90999985    2.86999989
   20.29500008   74.86910248    4.90999985    2.84999990
   20.29805565   74.10410309    4.90999985    2.86999989
   20.30138779   75.90200043    4.90999985    2.86999989
   20.30472183   75.63069916    4.90999985    2.86999989
   20.30777740   72.39129639    4.90999985    2.86999989
   20.31110954   71.54329681    4.90999985    2.86999989
   20.31583214   71.54329681    4.90999985    2.84999990
   20.32000160   72.61049652    4.90999985    2.84999990
   20.32305717   73.53679657    4.90999985    2.86999989
   20.32638931   73.37159729    4.90999985    2.86999989
   20.32972336   72.20040131    4.90999985    2.86999989
   20.33111191   74.29599762    4.90999985    2.86999989
   20.33333397   72.63210297    4.90999985    2.84999990
   20.33638954   73.58339691    4.90999985    2.84999990
   20.33972359   70.29250336    4.90999985    2.86999989
   20.34277916   71.50700378    4.90999985    2.86999989
   20.34611130   72.51329803    4.90999985    2.86999989
   20.34944534   71.75219727    4.90999985    2.84999990
   20.35250092   73.36340332    4.90999985    2.84999990
   20.35583305   70.69249725    4.90999985    2.84999990
   20.35916710   71.29419708    4.90999985    2.84999990
   20.36222267   73.28230286    4.90999985    2.84999990
   20.36694527   73.28230286    4.90999985    2.84999990
   20.37111092   71.77359772    4.90999985    2.84999990
   20.37444496   73.74659729    4.90999985    2.84999990
   20.37750053   73.43470001    4.90999985    2.86999989
   20.38083267   71.05889893    4.90999985    2.86999989
   20.38138962   73.15570068    4.90999985    2.84999990
   20.38472176   71.45950317    4.90999985    2.84999990
   20.38777733   72.13909912    4.90999985    2.84999990
   20.39111137   72.88760376    4.90999985    2.84999990
   20.39444351   72.73519897    4.90999985    2.84999990
   20.39749908   73.64620209    4.90999985    2.84999990
   20.40083313   74.23519897    4.90999985    2.84999990
   20.40388870   72.75409698    4.90999985    2.86999989
   20.40722275   70.93299866    4.90999985    2.86999989
   20.41055489   72.70130157    4.90999985    2.84999990
   20.41361046   71.50740051    4.90999985    2.84999990
   20.41833305   71.50740051    4.90999985    2.84999990
   20.42222214   72.77400208    4.90999985    2.84999990
   20.42555428   71.50620270    4.90999985    2.84999990
   20.42888832   74.80529785    4.90999985    2.84999990
   20.43138885   70.83660126    4.90999985    2.84999990
   20.43249893   72.50759888    4.90999985    2.84999990
   20.43555450   71.33709717    4.90999985    2.84999990
   20.43888855   74.30889893    4.90999985    2.86999989
   20.44194412   71.18509674    4.90999985    2.84999990
   20.44527626   72.81379700    4.90999985    2.84999990
   20.44861031   67.32559967    4.90999985    2.84999990
   20.45166779   72.26059723    4.90999985    2.84999990
   20.45499992   69.68250275    4.90999985    2.84999990
   20.45833397   71.23169708    4.90999985    2.84999990
   20.46138954   73.36470032    4.90999985    2.84999990
   20.46472359   72.86289978    4.90999985    2.84999990
   20.46944427   72.86289978    4.90999985    2.84999990
   20.47361183   71.41660309    4.90999985    2.84999990
   20.47666740   76.40720367    4.90999985    2.82999992
