    HOUR (UT)   FLARE FACTOR    SKY TESTER    SUN TESTER
   11.16722298   -1.00000000   -1.00000000   -1.00000000
   11.22277737  179.39799500    4.90999985    2.53999996
   11.22861099  176.91900635    4.90999985    2.55999994
   11.23194408  173.52400208    4.90999985    2.53999996
   11.23527813  177.44599915    4.90999985    2.53999996
   11.23833370  177.83700562    4.90999985    2.53999996
   11.24166679  180.62100220    4.90999985    2.53999996
   11.24472237  180.94599915    4.90999985    2.53999996
   11.24805546  172.78799438    4.90999985    2.55999994
   11.25166702  180.21499634    4.90999985    2.55999994
   11.25500011  178.12899780    4.90999985    2.55999994
   11.25611115  180.88000488    4.90999985    2.53999996
   11.25861073  171.39999390    4.90999985    2.55999994
   11.26166630  164.05499268    4.90999985    2.55999994
   11.26500034  173.40699768    4.90999985    2.55999994
   11.26833344  168.17399597    4.90999985    2.55999994
   11.27138901  159.04899597    4.90999985    2.55999994
   11.27472210  174.92799377    4.90999985    2.53999996
   11.27805519  152.81700134    4.90999985    2.55999994
   11.28111076  167.71400452    4.90999985    2.55999994
   11.28444481  167.01100159    4.90999985    2.55999994
   11.28750038  173.92399597    4.90999985    2.55999994
   11.28944492  168.31300354    4.90999985    2.55999994
   11.29138947  172.58900452    4.90999985    2.57999992
   11.29444504  171.04499817    4.90999985    2.55999994
   11.29777813  161.14100647    4.90999985    2.55999994
   11.30111122  173.73300171    4.90999985    2.57999992
   11.30416679  164.23800659    4.90999985    2.57999992
   11.30749989  174.40600586    4.90999985    2.55999994
   11.31055546  175.17900085    4.90999985    2.57999992
   11.31388950  163.67500305    4.90999985    2.55999994
   11.31722260  180.44200134    4.90999985    2.57999992
   11.32027817  168.36599731    4.90999985    2.57999992
   11.32277775  177.46899414    4.90999985    2.57999992
   11.32416630  172.93499756    4.90999985    2.57999992
   11.32722187  173.04400635    4.90999985    2.57999992
   11.33055592  179.46099854    4.90999985    2.57999992
   11.33388901  168.01699829    4.90999985    2.59999990
   11.33694458  179.18899536    4.90999985    2.59999990
   11.34027767  175.57499695    4.90999985    2.59999990
   11.34361076  172.48800659    4.90999985    2.57999992
   11.34666634  183.15299988    4.90999985    2.57999992
   11.35000038  174.07000732    4.90999985    2.57999992
   11.35305595  180.65199280    4.90999985    2.57999992
   11.35611153  181.00900269    4.90999985    2.57999992
   11.35694504  173.07800293    4.90999985    2.57999992
   11.36000061  171.34700012    4.90999985    2.57999992
   11.36333370  172.86199951    4.90999985    2.57999992
   11.36666679  181.90899658    4.90999985    2.59999990
   11.36972237  173.36999512    4.90999985    2.59999990
   11.37305546  184.23800659    4.90999985    2.59999990
   11.37611103  174.59500122    4.90999985    2.59999990
   11.37944412  174.46299744    4.90999985    2.57999992
   11.38277817  170.95399475    4.90999985    2.57999992
   11.38583279  171.71099854    4.90999985    2.59999990
   11.38916683  169.97500610    4.90999985    2.59999990
   11.38972187  170.77499390    4.90999985    2.59999990
   11.39305496  175.32099915    4.90999985    2.59999990
   11.39611053  163.29699707    4.90999985    2.59999990
   11.39944458  172.07000732    4.90999985    2.57999992
   11.40249920  177.88000488    4.90999985    2.59999990
   11.40583324  172.29699707    4.90999985    2.59999990
   11.40916634  174.08900452    4.90999985    2.61999989
   11.41222191  173.15100098    4.90999985    2.61999989
   11.41555500  169.57600403    4.90999985    2.59999990
   11.41888905  173.38600159    4.90999985    2.59999990
   11.42194462  172.40899658    4.90999985    2.59999990
   11.42305565  171.39500427    4.90999985    2.59999990
   11.42583370  171.53199768    4.90999985    2.59999990
   11.42888927  169.90199280    4.90999985    2.61999989
   11.43222237  175.54200745    4.90999985    2.59999990
   11.43527794  171.65600586    4.90999985    2.61999989
   11.43861103  156.36000061    4.90999985    2.59999990
   11.44194412  168.64100647    4.90999985    2.59999990
   11.44499969  157.94099426    4.90999985    2.59999990
   11.44833374  171.71499634    4.90999985    2.59999990
   11.45166683  178.05099487    4.90999985    2.61999989
   11.45472240  175.54100037    4.90999985    2.59999990
   11.45638847  174.75999451    4.90999985    2.61999989
   11.45861053  178.27600098    4.90999985    2.61999989
   11.46166611  179.14199829    4.90999985    2.61999989
   11.46500015  169.16999817    4.90999985    2.59999990
   11.46805477  174.99699402    4.90999985    2.61999989
   11.47138882  177.01300049    4.90999985    2.61999989
   11.47472191  175.99299622    4.90999985    2.61999989
   11.47777748  174.93200684    4.90999985    2.61999989
   11.48111057  174.90800476    4.90999985    2.59999990
   11.48444462  188.92799377    4.90999985    2.61999989
   11.48750019  178.94400024    4.90999985    2.61999989
   11.48972225  176.10899353    4.90999985    2.61999989
   11.49138927  172.66499329    4.90999985    2.64000010
   11.49444485  179.26600647    4.90999985    2.64000010
   11.49777794  186.04400635    4.90999985    2.64000010
   11.50083351  185.94900513    4.90999985    2.64000010
   11.50416660  181.49299622    4.90999985    2.64000010
   11.50749969  170.18499756    4.90999985    2.61999989
   11.51055527  179.69999695    4.90999985    2.64000010
   11.51388931  171.46899414    4.90999985    2.64000010
   11.51694393  169.58399963    4.90999985    2.61999989
   11.52027798  170.60000610    4.90999985    2.61999989
   11.52305508  163.96400452    4.90999985    2.61999989
   11.52388859  178.45399475    4.90999985    2.61999989
   11.52722168  163.97200012    4.90999985    2.61999989
   11.53055573  185.99200439    4.90999985    2.64000010
   11.53361130  155.77400208    4.90999985    2.64000010
   11.53694534  176.69999695    4.90999985    2.66000009
   11.54027843  174.13099670    4.90999985    2.64000010
   11.54333401  188.18800354    4.90999985    2.64000010
   11.54666710  172.31900024    4.90999985    2.64000010
   11.54972267  157.45700073    4.90999985    2.64000010
   11.55305576  172.57000732    4.90999985    2.64000010
   11.55638885  172.65100098    4.90999985    2.61999989
   11.55666733  164.17300415    4.90999985    2.64000010
   11.56000042  165.40100098    4.90999985    2.64000010
   11.56333351  172.37300110    4.90999985    2.64000010
   11.56638908  160.72200012    4.90999985    2.64000010
   11.56972218  165.17100525    4.90999985    2.61999989
   11.57305527  164.96200562    4.90999985    2.64000010
   11.57611084  175.09899902    4.90999985    2.64000010
   11.57944393  165.64900208    4.90999985    2.64000010
   11.58249950  175.15100098    4.90999985    2.64000010
   11.58583260  162.37399292    4.90999985    2.66000009
   11.58916664  171.62500000    4.90999985    2.64000010
   11.58972168  167.41099548    4.90999985    2.64000010
   11.59249973  173.52400208    4.90999985    2.64000010
   11.59583282  162.49099731    4.90999985    2.66000009
   11.59916592  156.94200134    4.90999985    2.66000009
   11.60249996  159.75300598    4.90999985    2.64000010
   11.60555553  169.56100464    4.90999985    2.67000008
   11.60888958  167.13400269    4.90999985    2.66000009
   11.61222267  156.77299500    4.90999985    2.66000009
   11.61527824  165.42599487    4.90999985    2.64000010
   11.61861134  165.13999939    4.90999985    2.66000009
   11.62166691  160.49299622    4.90999985    2.66000009
   11.62305546  166.34100342    4.90999985    2.64000010
   11.62555599  162.33299255    4.90999985    2.64000010
   11.62861156  160.29400635    4.90999985    2.66000009
   11.63194466  162.97500610    4.90999985    2.66000009
   11.63500023  152.59399414    4.90999985    2.66000009
   11.63833332  164.86500549    4.90999985    2.66000009
   11.64166641  161.86099243    4.90999985    2.66000009
   11.64472198  150.45899963    4.90999985    2.66000009
   11.64805508  154.63000488    4.90999985    2.66000009
   11.65111065  160.62699890    4.90999985    2.66000009
   11.65444374  154.64300537    4.90999985    2.64000010
   11.65638828  154.10600281    4.90999985    2.64000010
   11.65833282  153.66099548    4.90999985    2.66000009
   11.66138840  147.85800171    4.90999985    2.67000008
   11.66472149  156.52499390    4.90999985    2.66000009
   11.66805553  163.13200378    4.90999985    2.66000009
   11.67111111  159.30099487    4.90999985    2.66000009
   11.67444515  162.05000305    4.90999985    2.66000009
   11.67750072  161.63600159    4.90999985    2.66000009
   11.68083382  155.42900085    4.90999985    2.66000009
   11.68416691  150.40400696    4.90999985    2.67000008
   11.68722248  157.11300659    4.90999985    2.67000008
   11.68972206  158.01800537    4.90999985    2.67000008
   11.69111156  156.95799255    4.90999985    2.66000009
   11.69416714  155.52000427    4.90999985    2.66000009
   11.69750023  143.59899902    4.90999985    2.67000008
   11.70055580  143.54499817    4.90999985    2.66000009
   11.70388889  158.99600220    4.90999985    2.66000009
   11.70722198  144.87300110    4.90999985    2.67000008
   11.71027756  157.76199341    4.90999985    2.67000008
   11.71361065  151.80900574    4.90999985    2.67000008
   11.71694374  152.73800659    4.90999985    2.66000009
   11.71999931  133.45399475    4.90999985    2.67000008
   11.72305489  157.86000061    4.90999985    2.67000008
   11.72388840  142.78100586    4.90999985    2.67000008
   11.72694397  154.30299377    4.90999985    2.67000008
   11.73027706  141.05000305    4.90999985    2.66000009
   11.73333359  146.18800354    4.90999985    2.69000006
   11.73666668  159.01699829    4.90999985    2.67000008
   11.74000072  150.68499756    4.90999985    2.66000009
   11.74305534  142.76800537    4.90999985    2.66000009
   11.74638939  149.28300476    4.90999985    2.67000008
   11.74972248  147.10600281    4.90999985    2.67000008
   11.75277805  155.67500305    4.90999985    2.67000008
   11.75611115  145.05000305    4.90999985    2.69000006
   11.75666714  143.35299683    4.90999985    2.69000006
   11.75972176  139.50700378    4.90999985    2.67000008
   11.76305580  144.07499695    4.90999985    2.69000006
   11.76638889  141.33599854    4.90999985    2.67000008
   11.76944447  146.55700684    4.90999985    2.69000006
   11.77277756  126.55400085    4.90999985    2.69000006
   11.77611065  152.13499451    4.90999985    2.67000008
   11.77916622  138.65800476    4.90999985    2.69000006
   11.78249931  145.82299805    4.90999985    2.69000006
   11.78555584  144.65699768    4.90999985    2.69000006
   11.78888893  134.93299866    4.90999985    2.67000008
   11.79000092  145.05099487    4.90999985    2.67000008
   11.79250050  152.88499451    4.90999985    2.71000004
   11.79583359  142.71099854    4.90999985    2.69000006
   11.79916668  154.68499756    4.90999985    2.69000006
   11.80222225  145.91200256    4.90999985    2.67000008
   11.80555534  152.32299805    4.90999985    2.69000006
   11.80888939  142.20100403    4.90999985    2.69000006
   11.81194496  148.99699402    4.90999985    2.69000006
   11.81527805  135.67999268    4.90999985    2.67000008
   11.81833363  131.05499268    4.90999985    2.67000008
   11.82166672  147.56599426    4.90999985    2.69000006
   11.82333374  139.24299622    4.90999985    2.69000006
   11.82527733  144.92799377    4.90999985    2.71000004
   11.82861137  134.34500122    4.90999985    2.69000006
   11.83194447  145.72099304    4.90999985    2.71000004
   11.83500004  131.78900146    4.90999985    2.69000006
   11.83833313  137.76499939    4.90999985    2.69000006
   11.84166622  142.64100647    4.90999985    2.71000004
   11.84472179  151.59199524    4.90999985    2.71000004
   11.84805489  143.26100159    4.90999985    2.69000006
   11.85111141  129.67799377    4.90999985    2.69000006
   11.85444450  142.69900513    4.90999985    2.69000006
   11.85666752  137.84700012    4.90999985    2.69000006
   11.85833359  135.78999329    4.90999985    2.69000006
   11.86138916  145.14900208    4.90999985    2.69000006
   11.86472225  138.64700317    4.90999985    2.71000004
   11.86777782  144.46000671    4.90999985    2.71000004
   11.87111092  138.43899536    4.90999985    2.71000004
   11.87444496  145.32499695    4.90999985    2.71000004
   11.87750053  146.76800537    4.90999985    2.71000004
   11.88083363  142.91700745    4.90999985    2.71000004
   11.88388920  141.93200684    4.90999985    2.71000004
   11.88722229  131.34599304    4.90999985    2.71000004
   11.89000034  145.52499390    4.90999985    2.71000004
   11.89083290  145.45599365    4.90999985    2.71000004
   11.89416695  142.27499390    4.90999985    2.73000002
   11.89750004  130.11700439    4.90999985    2.69000006
   11.90055561  151.68400574    4.90999985    2.71000004
   11.90388870  141.44900513    4.90999985    2.69000006
   11.90722179  152.47900391    4.90999985    2.71000004
   11.91027737  147.33900452    4.90999985    2.69000006
   11.91361046  138.17700195    4.90999985    2.71000004
   11.91666698  146.55099487    4.90999985    2.71000004
   11.92000008  138.97500610    4.90999985    2.71000004
   11.92333412  151.01499939    4.90999985    2.71000004
   11.92361164  147.62100220    4.90999985    2.71000004
   11.92694473  136.83399963    4.90999985    2.71000004
   11.93027782  150.22099304    4.90999985    2.71000004
   11.93333340  137.36000061    4.90999985    2.71000004
   11.93666649  144.79299927    4.90999985    2.71000004
   11.94000053  144.42799377    4.90999985    2.71000004
   11.94305515  126.15399933    4.90999985    2.71000004
   11.94638920  138.83399963    4.90999985    2.71000004
   11.94944477  149.09399414    4.90999985    2.71000004
   11.95277786  151.60899353    4.90999985    2.69000006
   11.95611095  156.73100281    4.90999985    2.73000002
   11.95666695  154.67999268    4.90999985    2.71000004
   11.95944405  150.44599915    4.90999985    2.69000006
   11.96277714  145.67999268    4.90999985    2.71000004
   11.96611118  148.70599365    4.90999985    2.73000002
   11.96916580  150.89700317    4.90999985    2.71000004
   11.97249985  148.90499878    4.90999985    2.73000002
   11.97583294  139.49499512    4.90999985    2.71000004
   11.97888851  143.28399658    4.90999985    2.73000002
   11.98222160  150.71600342    4.90999985    2.73000002
   11.98527813  146.05799866    4.90999985    2.69000006
   11.98861122  142.27099609    4.90999985    2.71000004
   11.99000072  136.56700134    4.90999985    2.71000004
   11.99250031  140.56199646    4.90999985    2.73000002
   11.99555588  133.20500183    4.90999985    2.69000006
   11.99888897  138.80999756    4.90999985    2.73000002
   12.00194454  138.48300171    4.90999985    2.71000004
   12.00527763  132.61900330    4.90999985    2.73000002
   12.00861073  140.01300049    4.90999985    2.73000002
   12.01166630  146.29800415    4.90999985    2.73000002
   12.01500034  148.10299683    4.90999985    2.75000000
   12.01833344  137.07499695    4.90999985    2.73000002
   12.02138901  139.58599854    4.90999985    2.71000004
   12.02333355  148.30000305    4.90999985    2.73000002
   12.02527714  142.18499756    4.90999985    2.73000002
   12.02833271  140.64700317    4.90999985    2.73000002
   12.03166676  140.76699829    4.90999985    2.73000002
   12.03472233  137.05700684    4.90999985    2.71000004
   12.03805637  138.24499512    4.90999985    2.71000004
   12.04138947  141.99099731    4.90999985    2.73000002
   12.04444504  139.94700623    4.90999985    2.75000000
   12.04777813  135.11399841    4.90999985    2.73000002
   12.05111122  139.00199890    4.90999985    2.75000000
   12.05416679  139.91299438    4.90999985    2.73000002
   12.05666733  135.20599365    4.90999985    2.73000002
   12.05805588  133.26300049    4.90999985    2.73000002
   12.06111145  146.72900391    4.90999985    2.71000004
   12.06444454  140.17700195    4.90999985    2.73000002
   12.06750011  140.78100586    4.90999985    2.73000002
   12.07083321  150.01699829    4.90999985    2.71000004
   12.07416630  139.92399597    4.90999985    2.73000002
   12.07722187  134.39100647    4.90999985    2.71000004
   12.08055592  140.47500610    4.90999985    2.71000004
   12.08388901  128.77499390    4.90999985    2.73000002
   12.08694458  139.26400757    4.90999985    2.73000002
   12.09000015  147.17799377    4.90999985    2.73000002
   12.09083271  150.22000122    4.90999985    2.73000002
   12.09388828  146.31100464    4.90999985    2.73000002
   12.09722233  149.06799316    4.90999985    2.73000002
   12.10027790  143.57899475    4.90999985    2.73000002
   12.10361195  139.30000305    4.90999985    2.75000000
   12.10694504  143.33500671    4.90999985    2.75000000
   12.11000061  149.63699341    4.90999985    2.75000000
   12.11333370  147.76300049    4.90999985    2.73000002
   12.11666679  147.60899353    4.90999985    2.73000002
   12.11972237  145.66999817    4.90999985    2.73000002
   12.12305546  149.05099487    4.90999985    2.73000002
   12.12361145  146.87899780    4.90999985    2.75000000
   12.12694454  148.95700073    4.90999985    2.75000000
   12.13000011  155.02200317    4.90999985    2.75000000
   12.13333321  144.57200623    4.90999985    2.75000000
   12.13638878  141.40699768    4.90999985    2.73000002
   12.13972187  150.84700012    4.90999985    2.75000000
   12.14305496  146.28500366    4.90999985    2.75000000
   12.14611053  151.77200317    4.90999985    2.75000000
   12.14944458  159.20500183    4.90999985    2.75000000
   12.15277767  156.27299500    4.90999985    2.75000000
   12.15583324  156.58700562    4.90999985    2.75000000
   12.15694427  169.83000183    4.90999985    2.73000002
   12.15972137  152.46600342    4.90999985    2.75000000
   12.16277695  155.19500732    4.90999985    2.75000000
   12.16611099  167.92700195    4.90999985    2.75000000
   12.16916656  168.96800232    4.90999985    2.75000000
   12.17250061  173.10899353    4.90999985    2.75000000
   12.17583370  165.97200012    4.90999985    2.75000000
   12.17888927  152.18200684    4.90999985    2.75000000
   12.18222237  167.22099304    4.90999985    2.75000000
   12.18555546  169.28100586    4.90999985    2.75000000
   12.18861103  165.70100403    4.90999985    2.75000000
   12.19027805  160.11599731    4.90999985    2.75000000
   12.19250011  174.53300476    4.90999985    2.75000000
   12.19555569  175.44799805    4.90999985    2.75000000
   12.19888878  178.02099609    4.90999985    2.75000000
   12.20194435  166.58099365    4.90999985    2.75000000
   12.20527744  174.16700745    4.90999985    2.76999998
   12.20861053  166.94200134    4.90999985    2.76999998
   12.21166611  171.70300293    4.90999985    2.75000000
   12.21500015  174.62600708    4.90999985    2.75000000
   12.21833324  174.09199524    4.90999985    2.75000000
   12.22138882  170.66200256    4.90999985    2.75000000
   12.23944473  177.78300476    4.90999985    2.75000000
   12.24138927  157.44400024    4.90999985    2.75000000
   12.24444485  166.46000671    4.90999985    2.75000000
   12.24777794  167.64300537    4.90999985    2.75000000
   12.25083351  173.85600281    4.90999985    2.75000000
   12.25416660  172.99899292    4.90999985    2.75000000
   12.25749969  173.03300476    4.90999985    2.75000000
   12.26055527  169.90800476    4.90999985    2.76999998
   12.26388931  166.58500671    4.90999985    2.75000000
   12.26722240  172.17900085    4.90999985    2.75000000
   12.27027798  175.20799255    4.90999985    2.75000000
   12.27277756  165.31599426    4.90999985    2.76999998
   12.27388859  161.85499573    4.90999985    2.75000000
   12.27722168  180.34700012    4.90999985    2.75000000
   12.28055573  171.33500671    4.90999985    2.76999998
   12.28361130  164.03300476    4.90999985    2.76999998
   12.28694534  176.04100037    4.90999985    2.78999996
   12.29027843  180.97799683    4.90999985    2.75000000
   12.29333401  175.17900085    4.90999985    2.75000000
   12.29666710  176.18299866    4.90999985    2.76999998
   12.29972267  169.27099609    4.90999985    2.76999998
   12.30305576  176.03500366    4.90999985    2.76999998
   12.30611134  163.73399353    4.90999985    2.76999998
   12.30666733  179.34500122    4.90999985    2.76999998
   12.31000042  173.61799622    4.90999985    2.75000000
   12.31333351  168.17999268    4.90999985    2.76999998
   12.31638908  179.97599792    4.90999985    2.76999998
   12.31972218  181.49099731    4.90999985    2.76999998
   12.32305527  166.83099365    4.90999985    2.78999996
   12.32611084  173.04600525    4.90999985    2.76999998
   12.32944393  178.63900757    4.90999985    2.76999998
   12.33249950  174.69599915    4.90999985    2.76999998
   12.33583260  170.06700134    4.90999985    2.76999998
   12.33916664  176.84700012    4.90999985    2.78999996
   12.33972168  164.96299744    4.90999985    2.78999996
   12.34277725  165.12600708    4.90999985    2.76999998
   12.34611034  167.97200012    4.90999985    2.76999998
   12.34944439  172.78999329    4.90999985    2.76999998
   12.35249996  162.19999695    4.90999985    2.78999996
   12.35583401  158.00500488    4.90999985    2.78999996
   12.35916710  170.66099548    4.90999985    2.76999998
   12.36222267  173.27900696    4.90999985    2.76999998
   12.36555576  173.13600159    4.90999985    2.76999998
   12.36888885  166.72999573    4.90999985    2.76999998
   12.37194443  156.02499390    4.90999985    2.78999996
   12.37305546  171.12399292    4.90999985    2.78999996
   12.37555599  166.58099365    4.90999985    2.76999998
   12.37888908  157.90600586    4.90999985    2.78999996
   12.38222218  165.03199768    4.90999985    2.75000000
   12.38527775  171.21299744    4.90999985    2.76999998
   12.38861084  172.65100098    4.90999985    2.78999996
   12.39166641  172.29299927    4.90999985    2.76999998
   12.39499950  177.82200623    4.90999985    2.76999998
   12.39833355  168.01600647    4.90999985    2.76999998
   12.40138817  173.16000366    4.90999985    2.76999998
   12.40472221  170.34500122    4.90999985    2.78999996
   12.40638828  176.65800476    4.90999985    2.76999998
   12.40833282  169.07200623    4.90999985    2.76999998
   12.41166592  164.69400024    4.90999985    2.76999998
   12.41499996  168.90699768    4.90999985    2.76999998
   12.41805553  168.47999573    4.90999985    2.78999996
   12.42138958  171.47200012    4.90999985    2.75000000
   12.42444515  170.68099976    4.90999985    2.76999998
   12.42777824  173.04100037    4.90999985    2.78999996
   12.43111134  178.94200134    4.90999985    2.78999996
   12.43416691  175.24200439    4.90999985    2.78999996
   12.43750000  172.61300659    4.90999985    2.78999996
   12.43972206  173.08399963    4.90999985    2.78999996
   12.44111156  171.03399658    4.90999985    2.78999996
   12.44444466  165.29600525    4.90999985    2.76999998
   12.44777775  179.89999390    4.90999985    2.76999998
   12.45083332  174.96299744    4.90999985    2.78999996
   12.45416641  162.00000000    4.90999985    2.78999996
   12.45722198  156.80599976    4.90999985    2.78999996
   12.46055508  174.69200134    4.90999985    2.78999996
   12.46388912  171.28100586    4.90999985    2.78999996
   12.46694374  167.06700134    4.90999985    2.76999998
   12.47027779  175.05799866    4.90999985    2.76999998
   12.47305489  173.42700195    4.90999985    2.78999996
   12.47388840  173.86399841    4.90999985    2.78999996
   12.47722149  175.05200195    4.90999985    2.78999996
   12.48055553  165.37899780    4.90999985    2.76999998
   12.48361111  171.83999634    4.90999985    2.76999998
   12.48694515  173.62500000    4.90999985    2.76999998
   12.49000072  157.81799316    4.90999985    2.78999996
   12.49333382  179.85099792    4.90999985    2.78999996
   12.49666691  169.01800537    4.90999985    2.78999996
   12.49972248  178.81599426    4.90999985    2.78999996
   12.50305557  174.96699524    4.90999985    2.78999996
   12.50638866  166.11900330    4.90999985    2.80999994
   12.50666714  170.91000366    4.90999985    2.80999994
   12.51000023  170.40899658    4.90999985    2.78999996
   12.51333332  173.77400208    4.90999985    2.80999994
   12.51638889  166.68200684    4.90999985    2.80999994
   12.51972198  175.93299866    4.90999985    2.78999996
   12.52277756  177.68800354    4.90999985    2.78999996
   12.52611065  165.84700012    4.90999985    2.78999996
   12.52944374  170.53100586    4.90999985    2.78999996
   12.53277779  172.17999268    4.90999985    2.78999996
   12.53583336  175.45700073    4.90999985    2.78999996
   12.53916740  174.21000671    4.90999985    2.78999996
   12.53972244  176.83900452    4.90999985    2.78999996
   12.54250050  176.16000366    4.90999985    2.78999996
   12.54583359  178.16600037    4.90999985    2.78999996
   12.54916668  167.43099976    4.90999985    2.80999994
   12.55222225  165.23899841    4.90999985    2.78999996
   12.55555534  186.00799561    4.90999985    2.76999998
   12.55888939  179.91400146    4.90999985    2.80999994
   12.56194496  182.64799500    4.90999985    2.78999996
   12.56527805  189.06300354    4.90999985    2.80999994
   12.56833363  185.30999756    4.90999985    2.80999994
   12.57166672  174.71000671    4.90999985    2.78999996
   12.57305527  191.97200012    4.90999985    2.78999996
   12.57527733  176.25300598    4.90999985    2.80999994
   12.57861137  163.52000427    4.90999985    2.78999996
   12.58194447  182.56700134    4.90999985    2.78999996
   12.58500004  172.38800049    4.90999985    2.78999996
   12.58833313  167.49400330    4.90999985    2.80999994
   12.59166622  167.19700623    4.90999985    2.80999994
   12.59472179  179.51400757    4.90999985    2.78999996
   12.59805489  186.77099609    4.90999985    2.80999994
   12.60111141  175.93800354    4.90999985    2.80999994
   12.60444450  185.62800598    4.90999985    2.78999996
   12.60638905  184.42999268    4.90999985    2.80999994
   12.60833359  173.57800293    4.90999985    2.80999994
   12.61138916  183.04400635    4.90999985    2.78999996
   12.61472225  170.95799255    4.90999985    2.80999994
   12.61777782  195.49600220    4.90999985    2.78999996
   12.62111092  208.21099854    4.90999985    2.76999998
   12.62444496  207.10099792    4.90999985    2.78999996
   12.62750053  229.69999695    4.90999985    2.78999996
   12.63083363  217.52000427    4.90999985    2.80999994
   12.63416672  228.94099426    4.90999985    2.82999992
   12.63722229  199.77499390    4.90999985    2.80999994
   12.63972187  176.84599304    4.90999985    2.78999996
   12.64083290  194.45700073    4.90999985    2.82999992
   12.64416695  197.34100342    4.90999985    2.80999994
   12.64750004  211.74699402    4.90999985    2.80999994
   12.65055561  214.66900635    4.90999985    2.80999994
   12.65388870  227.88699341    4.90999985    2.82999992
   12.65722179  222.67700195    4.90999985    2.80999994
   12.66027737  197.49000549    4.90999985    2.80999994
   12.66361046  232.81599426    4.90999985    2.78999996
   12.66666698  191.17799377    4.90999985    2.80999994
   12.67000008  217.95500183    4.90999985    2.78999996
   12.67305565  202.06799316    4.90999985    2.82999992
   12.67361164  211.52299500    4.90999985    2.82999992
   12.67694473  211.04699707    4.90999985    2.78999996
   12.68027782  210.68699646    4.90999985    2.78999996
   12.68333340  209.61000061    4.90999985    2.80999994
   12.68666649  217.82699585    4.90999985    2.80999994
   12.69000053  212.52000427    4.90999985    2.80999994
   12.69305515  217.42399597    4.90999985    2.80999994
   12.69638920  208.33099365    4.90999985    2.80999994
   12.69972229  211.90899658    4.90999985    2.78999996
   12.70277786  205.42900085    4.90999985    2.80999994
   12.70611095  208.24499512    4.90999985    2.82999992
   12.70666695  208.48599243    4.90999985    2.82999992
   12.71000004  214.97900391    4.90999985    2.80999994
   12.71305561  210.01300049    4.90999985    2.82999992
   12.71638870  184.85299683    4.90999985    2.80999994
   12.71944427  205.91900635    4.90999985    2.80999994
   12.72277737  204.58099365    4.90999985    2.80999994
   12.72611046  179.90299988    4.90999985    2.80999994
   12.72916603  199.79699707    4.90999985    2.80999994
   12.73249912  199.00000000    4.90999985    2.80999994
   12.73583317  200.28500366    4.90999985    2.80999994
   12.73888874  212.69400024    4.90999985    2.80999994
   12.74000072  208.23800659    4.90999985    2.82999992
   12.74277782  195.60899353    4.90999985    2.82999992
   12.74583340  196.20199585    4.90999985    2.80999994
   12.74916649  201.84800720    4.90999985    2.80999994
   12.75222206  187.25399780    4.90999985    2.80999994
   12.75555515  196.42500305    4.90999985    2.80999994
   12.75888920  188.75700378    4.90999985    2.80999994
   12.76194477  191.27299500    4.90999985    2.80999994
   12.76527786  201.77400208    4.90999985    2.82999992
   12.76861095  193.06500244    4.90999985    2.82999992
   12.77166653  187.73899841    4.90999985    2.82999992
   12.77333355  180.22500610    4.90999985    2.82999992
   12.77555561  182.57800293    4.90999985    2.82999992
   12.77861118  183.92500305    4.90999985    2.82999992
   12.78194427  206.69700623    4.90999985    2.80999994
   12.78527832  204.45799255    4.90999985    2.80999994
   12.78833389  203.22000122    4.90999985    2.82999992
   12.79166698  207.02999878    4.90999985    2.80999994
   12.79472256  193.50599670    4.90999985    2.80999994
   12.79805565  183.76899719    4.90999985    2.80999994
   12.80138874  204.83500671    4.90999985    2.82999992
   12.80444431  185.15699768    4.90999985    2.82999992
   12.80666733  190.50300598    4.90999985    2.80999994
   12.80833340  193.91499329    4.90999985    2.80999994
   12.81138897  196.24499512    4.90999985    2.82999992
   12.81472206  182.05599976    4.90999985    2.82999992
   12.81777763  193.66000366    4.90999985    2.82999992
   12.82111073  181.11099243    4.90999985    2.80999994
   12.82444477  191.80999756    4.90999985    2.80999994
   12.82750034  185.65800476    4.90999985    2.80999994
   12.83083344  194.98899841    4.90999985    2.82999992
   12.83416653  193.16700745    4.90999985    2.80999994
   12.83722210  180.97799683    4.90999985    2.80999994
   12.84000015  177.45799255    4.90999985    2.82999992
   12.84111118  186.55000305    4.90999985    2.82999992
   12.84416676  191.97099304    4.90999985    2.82999992
   12.84749985  187.14999390    4.90999985    2.82999992
   12.85055637  180.31199646    4.90999985    2.80999994
   12.85388947  190.70100403    4.90999985    2.82999992
   12.85722256  187.89500427    4.90999985    2.82999992
   12.86027813  186.59300232    4.90999985    2.82999992
   12.86361122  188.74600220    4.90999985    2.82999992
   12.86694431  183.29699707    4.90999985    2.82999992
   12.86999989  183.35499573    4.90999985    2.82999992
   12.87333393  197.23399353    4.90999985    2.82999992
   12.87388897  198.89599609    4.90999985    2.82999992
   12.87694454  178.85200500    4.90999985    2.82999992
   12.88027763  158.10600281    4.90999985    2.82999992
   12.88333321  196.38800049    4.90999985    2.82999992
   12.88666630  183.06199646    4.90999985    2.82999992
   12.89000034  167.55499268    4.90999985    2.82999992
   12.89305496  176.33299255    4.90999985    2.82999992
   12.89638901  193.63999939    4.90999985    2.84999990
   12.89972210  183.06100464    4.90999985    2.82999992
   12.90277767  184.26699829    4.90999985    2.82999992
   12.90611076  189.65199280    4.90999985    2.82999992
   12.90666676  179.92799377    4.90999985    2.82999992
   12.90972137  177.81900024    4.90999985    2.82999992
   12.91277695  177.89599609    4.90999985    2.84999990
   12.91611099  182.11300659    4.90999985    2.80999994
   12.91916656  180.74600220    4.90999985    2.84999990
   12.92250061  189.09300232    4.90999985    2.82999992
   12.92583370  183.56599426    4.90999985    2.82999992
   13.03111076   -1.00000000   -1.00000000   -1.00000000
   13.12888908   -1.00000000   -1.00000000   -1.00000000
   13.22972202   -1.00000000   -1.00000000   -1.00000000
   13.27111053  106.98400116    4.90999985    2.86999989
   13.27444458  172.59800720    4.90999985    2.86999989
   13.27777767  174.90899658    4.90999985    2.86999989
   13.28083324  179.80299377    4.90999985    2.86999989
   13.28416729  178.48399353    4.90999985    2.84999990
   13.28750038  173.52099609    4.90999985    2.86999989
   13.29166698  173.52099609    4.90999985    2.86999989
   13.29555607  169.32699585    4.90999985    2.86999989
   13.29888916  167.18499756    4.90999985    2.84999990
   13.30222225  170.45899963    4.90999985    2.86999989
   13.30444431  172.64399719    4.90999985    2.86999989
   13.30555534  171.92500305    4.90999985    2.86999989
   13.30888939  172.82000732    4.90999985    2.86999989
   13.31222248  168.83700562    4.90999985    2.84999990
   13.31527805  161.05999756    4.90999985    2.84999990
   13.31861115  169.42900085    4.90999985    2.86999989
   13.32166672  170.38900757    4.90999985    2.86999989
   13.32499981  163.91299438    4.90999985    2.86999989
   13.32833290  169.72000122    4.90999985    2.86999989
   13.33444405  169.72000122    4.90999985    2.84999990
   13.33861065  165.95300293    4.90999985    2.86999989
   13.34166622  168.78799438    4.90999985    2.86999989
   13.34499931  168.71200562    4.90999985    2.84999990
   13.34833336  171.72399902    4.90999985    2.84999990
   13.35138893  177.62199402    4.90999985    2.86999989
   13.35472298  166.18299866    4.90999985    2.86999989
   13.35777855  161.92100525    4.90999985    2.86999989
   13.36111164  157.70399475    4.90999985    2.86999989
   13.36444473  158.48100281    4.90999985    2.86999989
   13.36750031  162.82899475    4.90999985    2.86999989
   13.37083340  148.75700378    4.90999985    2.86999989
   13.37138939  154.19400024    4.90999985    2.86999989
   13.37722206  154.19400024    4.90999985    2.86999989
   13.38138866  161.68499756    4.90999985    2.84999990
   13.38472176  159.55200195    4.90999985    2.84999990
   13.38777733  154.50300598    4.90999985    2.86999989
   13.39111137  163.38999939    4.90999985    2.86999989
   13.39416695  167.83000183    4.90999985    2.89000010
   13.39750004  159.33999634    4.90999985    2.89000010
   13.40083313  161.26400757    4.90999985    2.84999990
   13.40388870  152.98300171    4.90999985    2.89000010
   13.40472221  148.58299255    4.90999985    2.89000010
   13.40777779  153.28199768    4.90999985    2.84999990
   13.41083336  157.93099976    4.90999985    2.86999989
   13.41416645  168.95100403    4.90999985    2.86999989
   13.42000008  168.95100403    4.90999985    2.86999989
   13.42416668  172.47700500    4.90999985    2.86999989
   13.42750072  169.71400452    4.90999985    2.86999989
   13.43055630  166.53799438    4.90999985    2.86999989
   13.43388939  167.03199768    4.90999985    2.86999989
   13.43722248  169.63099670    4.90999985    2.84999990
   13.43805599  168.05999756    4.90999985    2.86999989
   13.44083309  159.96600342    4.90999985    2.89000010
   13.44388866  163.03500366    4.90999985    2.86999989
   13.44722271  164.03700256    4.90999985    2.86999989
   13.45027733  175.72200012    4.90999985    2.86999989
   13.45361137  176.76100159    4.90999985    2.86999989
   13.45694447  155.60600281    4.90999985    2.86999989
   13.46305561  155.60600281    4.90999985    2.84999990
   13.46694374  176.61000061    4.90999985    2.89000010
   13.47027779  175.79299927    4.90999985    2.86999989
   13.47138882  205.88000488    4.90999985    2.91000009
   13.47416592  179.46899414    4.90999985    2.86999989
   13.47722149  176.14900208    4.90999985    2.86999989
   13.48055553  163.61999512    4.90999985    2.86999989
   13.48361111  181.91900635    4.90999985    2.89000010
   13.48694515  174.97799683    4.90999985    2.86999989
   13.49027824  176.57000732    4.90999985    2.86999989
   13.49333382  179.96200562    4.90999985    2.89000010
   13.49666691  172.10899353    4.90999985    2.89000010
   13.50000000  188.16000366    4.90999985    2.86999989
   13.50583363  188.16000366    4.90999985    2.86999989
   13.51000023  173.32699585    4.90999985    2.86999989
   13.51305580  182.67399597    4.90999985    2.86999989
   13.51638889  196.26600647    4.90999985    2.89000010
   13.51972198  197.15899658    4.90999985    2.86999989
   13.52277756  191.86799622    4.90999985    2.86999989
   13.52611065  176.70199585    4.90999985    2.89000010
   13.52916622  185.81799316    4.90999985    2.89000010
   13.53249931  186.12500000    4.90999985    2.86999989
   13.53583336  187.95700073    4.90999985    2.89000010
   13.53805637  181.65899658    4.90999985    2.86999989
   13.53944492  174.52299500    4.90999985    2.89000010
   13.54250050  181.96299744    4.90999985    2.86999989
   13.54861164  181.96299744    4.90999985    2.86999989
   13.55277824  163.07299805    4.90999985    2.86999989
   13.55611134  183.22500610    4.90999985    2.86999989
   13.55916691  180.89100647    4.90999985    2.89000010
   13.56250000  158.29200745    4.90999985    2.86999989
   13.56555557  164.37699890    4.90999985    2.89000010
   13.56888866  165.88499451    4.90999985    2.86999989
   13.57138920  173.61700439    4.90999985    2.89000010
   13.57277775  169.57099915    4.90999985    2.89000010
   13.57583332  162.89399719    4.90999985    2.89000010
   13.57916641  178.22599792    4.90999985    2.86999989
   13.58222198  172.94500732    4.90999985    2.89000010
   13.58555508  188.47999573    4.90999985    2.89000010
   13.59138870  188.47999573    4.90999985    2.89000010
   13.59555531  162.61999512    4.90999985    2.89000010
   13.59888840  160.00300598    4.90999985    2.86999989
   13.60194492  167.84399414    4.90999985    2.86999989
   13.60472298  161.83599854    4.90999985    2.84999990
   13.60583401  182.30700684    4.90999985    2.86999989
   13.60888958  166.01800537    4.90999985    2.86999989
   13.61222267  180.05000305    4.90999985    2.86999989
   13.61527824  176.08599854    4.90999985    2.89000010
   13.61861134  176.96800232    4.90999985    2.91000009
   13.62194443  173.05900574    4.90999985    2.86999989
   13.62500000  181.59300232    4.90999985    2.91000009
   13.62833309  170.73899841    4.90999985    2.86999989
   13.63444424  170.73899841    4.90999985    2.89000010
   13.63833332  174.27499390    4.90999985    2.89000010
   13.64166641  143.05900574    4.90999985    2.86999989
   13.64499950  168.74600220    4.90999985    2.91000009
   13.64805508  174.91200256    4.90999985    2.89000010
   13.65138817  171.99699402    4.90999985    2.86999989
   13.65472221  160.73599243    4.90999985    2.89000010
   13.65777779  157.91700745    4.90999985    2.86999989
   13.66111088  162.86599731    4.90999985    2.91000009
   13.66416645  168.21699524    4.90999985    2.86999989
   13.66750050  161.76499939    4.90999985    2.84999990
   13.67083359  156.57299805    4.90999985    2.89000010
   13.67138958  158.65499878    4.90999985    2.86999989
   13.67722225  158.65499878    4.90999985    2.89000010
   13.68138885  156.74200439    4.90999985    2.89000010
   13.68444443  160.18899536    4.90999985    2.89000010
   13.68777752  152.91999817    4.90999985    2.86999989
   13.69111156  167.89900208    4.90999985    2.89000010
   13.69416714  155.38200378    4.90999985    2.91000009
   13.69750023  154.74000549    4.90999985    2.89000010
   13.70055580  166.33099365    4.90999985    2.86999989
   13.70388889  159.54200745    4.90999985    2.89000010
   13.70472240  160.87500000    4.90999985    2.89000010
   13.70749950  158.70500183    4.90999985    2.89000010
   13.71055508  156.47500610    4.90999985    2.86999989
   13.71388912  157.57000732    4.90999985    2.89000010
   13.71999931  157.57000732    4.90999985    2.89000010
   13.72416592  162.48699951    4.90999985    2.89000010
   13.72749996  159.14100647    4.90999985    2.89000010
   13.73055553  161.18499756    4.90999985    2.91000009
   13.73388958  166.82099915    4.90999985    2.89000010
   13.73722267  164.75300598    4.90999985    2.89000010
   13.73805618  157.36700439    4.90999985    2.86999989
   13.74083328  170.51300049    4.90999985    2.89000010
   13.74388885  161.56199646    4.90999985    2.91000009
   13.74722290  164.03900146    4.90999985    2.89000010
   13.75055599  162.66200256    4.90999985    2.89000010
   13.75361156  155.07800293    4.90999985    2.89000010
   13.75694466  155.04899597    4.90999985    2.89000010
   13.76277733  155.04899597    4.90999985    2.89000010
   13.76694393  150.67599487    4.90999985    2.89000010
   13.77027798  152.55799866    4.90999985    2.89000010
   13.77138901  161.96200562    4.90999985    2.89000010
   13.77388859  153.62800598    4.90999985    2.91000009
   13.77694416  161.68200684    4.90999985    2.91000009
   13.78027725  155.29800415    4.90999985    2.89000010
   13.78361130  166.59199524    4.90999985    2.89000010
   13.78666687  161.35299683    4.90999985    2.89000010
   13.79000092  155.02499390    4.90999985    2.89000010
   13.79333401  158.53100586    4.90999985    2.91000009
   13.79638958  152.05900574    4.90999985    2.91000009
   13.79972267  146.57600403    4.90999985    2.89000010
   13.80583382  146.57600403    4.90999985    2.89000010
   13.80972195  151.04200745    4.90999985    2.89000010
   13.81305599  147.05999756    4.90999985    2.91000009
   13.81638908  152.91900635    4.90999985    2.91000009
   13.81944466  164.01300049    4.90999985    2.89000010
   13.82277775  154.39100647    4.90999985    2.89000010
   13.82611084  157.92700195    4.90999985    2.89000010
   13.82916641  160.07099915    4.90999985    2.86999989
   13.83249950  147.94500732    4.90999985    2.91000009
   13.83555508  152.00000000    4.90999985    2.86999989
   13.83805561  156.42300415    4.90999985    2.93000007
   13.83944416  147.75700378    4.90999985    2.89000010
   13.84249973  152.45899963    4.90999985    2.89000010
   13.84861088  152.45899963    4.90999985    2.89000010
   13.85277843  149.77699280    4.90999985    2.89000010
   13.85583401  147.63400269    4.90999985    2.89000010
   13.85916710  154.88999939    4.90999985    2.91000009
   13.86250019  151.10600281    4.90999985    2.91000009
   13.86555576  154.20899963    4.90999985    2.91000009
   13.86888885  166.34700012    4.90999985    2.91000009
   13.87138939  164.57099915    4.90999985    2.89000010
   13.87250042  155.78599548    4.90999985    2.91000009
   13.87555599  159.90699768    4.90999985    2.91000009
   13.87888908  182.85400391    4.90999985    2.89000010
   13.88222218  262.01800537    4.90999985    2.91000009
   13.88527775  203.31300354    4.90999985    2.91000009
   13.89138889  203.31300354    4.90999985    2.89000010
   13.89555550  228.12600708    4.90999985    2.91000009
   13.89888859  212.13600159    4.90999985    2.91000009
   13.90194416  148.88999939    4.90999985    2.91000009
   13.90472221  192.71600342    4.90999985    2.93000007
   13.90583324  173.76300049    4.90999985    2.89000010
   13.90888882  183.92900085    4.90999985    2.89000010
   13.91222191  196.71200562    4.90999985    2.93000007
   13.91555500  168.60400391    4.90999985    2.89000010
   13.91861153  205.44299316    4.90999985    2.89000010
   13.92194462  149.11799622    4.90999985    2.91000009
   13.92500019  167.37199402    4.90999985    2.91000009
   13.92833328  162.67599487    4.90999985    2.89000010
   13.93416691  162.67599487    4.90999985    2.91000009
   13.93833351  161.01300049    4.90999985    2.91000009
   13.94166660  167.51199341    4.90999985    2.89000010
   13.94472218  155.24699402    4.90999985    2.93000007
   13.94805527  151.85800171    4.90999985    2.91000009
   13.95138836  159.74499512    4.90999985    2.91000009
   13.95444393  165.48800659    4.90999985    2.89000010
   13.95777798  162.89700317    4.90999985    2.91000009
   13.96111107  163.63400269    4.90999985    2.89000010
   13.96416664  161.71699524    4.90999985    2.93000007
   13.96749973  175.24800110    4.90999985    2.89000010
   13.97055531  192.51100159    4.90999985    2.91000009
   13.97138882  214.16299438    4.90999985    2.91000009
   13.97722149  214.16299438    4.90999985    2.93000007
   13.98111057  323.77700806    4.90999985    2.89000010
   13.98333359  313.77301025    4.90999985    2.91000009
   13.98444462  289.33801270    4.90999985    2.91000009
   13.98583317  294.15200806    4.90999985    2.91000009
   13.98722267  245.73899841    4.90999985    2.89000010
   13.98750019  192.51100159    4.90999985    2.91000009
   13.98750019  323.77700806    4.90999985    2.89000010
   13.98750019  151.85800171    4.90999985    2.91000009
   13.98777771  159.74499512    4.90999985    2.91000009
   13.98777771  165.48800659    4.90999985    2.89000010
   13.98777771  162.89700317    4.90999985    2.91000009
   13.98805618  163.63400269    4.90999985    2.89000010
   13.98805618  161.71699524    4.90999985    2.93000007
   13.98833370  175.24800110    4.90999985    2.89000010
   13.98888874  241.47000122    4.90999985    2.89000010
   13.99194431  265.65499878    4.90999985    2.91000009
   13.99527836  287.99499512    4.90999985    2.91000009
   13.99833393  286.79098511    4.90999985    2.91000009
   14.00166702  274.11099243    4.90999985    2.89000010
   14.00805569  274.11099243    4.90999985    2.91000009
   14.01222229  231.44400024    4.90999985    2.93000007
   14.01555538  234.70700073    4.90999985    2.91000009
   14.01861095  206.29299927    4.90999985    2.91000009
   14.02111053  228.38800049    4.90999985    2.93000007
   14.02250004  186.61500549    4.90999985    2.91000009
   14.02583313  212.51499939    4.90999985    2.91000009
   14.02888870  203.29600525    4.90999985    2.91000009
   14.03222179  200.94400024    4.90999985    2.91000009
   14.03555584  199.92999268    4.90999985    2.91000009
   14.03861141  194.87500000    4.90999985    2.93000007
   14.04194450  188.90499878    4.90999985    2.91000009
   14.04500008  210.26300049    4.90999985    2.93000007
   14.05111122  210.26300049    4.90999985    2.91000009
   14.05500031  182.13699341    4.90999985    2.89000010
   14.05833340  199.01199341    4.90999985    2.93000007
   14.06166649  194.10200500    4.90999985    2.91000009
   14.06472206  228.58099365    4.90999985    2.93000007
   14.06805515  213.60699463    4.90999985    2.93000007
   14.07138920  182.14900208    4.90999985    2.91000009
   14.07444477  200.84300232    4.90999985    2.91000009
   14.07777786  219.19799805    4.90999985    2.91000009
   14.08083344  181.42199707    4.90999985    2.89000010
   14.08416653  202.23199463    4.90999985    2.93000007
   14.08749962  199.05999756    4.90999985    2.91000009
   14.08805561  188.27400208    4.90999985    2.91000009
   14.09388828  188.27400208    4.90999985    2.93000007
   14.09805489  198.77900696    4.90999985    2.93000007
   14.10111141  181.02299500    4.90999985    2.91000009
   14.10444450  173.20100403    4.90999985    2.93000007
   14.10777855  195.34800720    4.90999985    2.89000010
   14.11083412  177.62300110    4.90999985    2.91000009
   14.11416721  170.52699280    4.90999985    2.91000009
   14.11722279  203.64199829    4.90999985    2.91000009
   14.12055588  202.16200256    4.90999985    2.93000007
   14.12138939  206.75500488    4.90999985    2.93000007
   14.12416649  177.98800659    4.90999985    2.91000009
   14.12750053  199.38699341    4.90999985    2.89000010
   14.13083363  181.09300232    4.90999985    2.93000007
   14.13666630  181.09300232    4.90999985    2.91000009
   14.14083290  171.69400024    4.90999985    2.89000010
   14.14416695  185.15800476    4.90999985    2.91000009
   14.14722252  169.23699951    4.90999985    2.93000007
   14.15055561  186.02200317    4.90999985    2.94000006
   14.15361118  195.05999756    4.90999985    2.89000010
   14.15472221  178.56100464    4.90999985    2.93000007
   14.15722179  197.26699829    4.90999985    2.91000009
   14.16055489  170.92999268    4.90999985    2.91000009
   14.16388893  176.11399841    4.90999985    2.91000009
   14.16694450  183.78100586    4.90999985    2.89000010
   14.17027855  185.80499268    4.90999985    2.91000009
   14.17333412  192.40499878    4.90999985    2.93000007
   14.17944431  192.40499878    4.90999985    2.93000007
   14.18361092  167.02000427    4.90999985    2.91000009
   14.18694496  179.68400574    4.90999985    2.91000009
   14.18805599  177.13499451    4.90999985    2.93000007
   14.19055557  174.74600220    4.90999985    2.89000010
   14.19388866  183.33299255    4.90999985    2.91000009
   14.19722271  178.30900574    4.90999985    2.93000007
   14.20027733  173.83299255    4.90999985    2.91000009
   14.20361137  184.40199280    4.90999985    2.93000007
   14.20666695  188.20300293    4.90999985    2.93000007
   14.21000004  180.35000610    4.90999985    2.93000007
   14.21333313  183.89700317    4.90999985    2.93000007
   14.21638870  173.66200256    4.90999985    2.94000006
   14.22249985  173.66200256    4.90999985    2.91000009
   14.22638798  179.36500549    4.90999985    2.91000009
   14.22972202  173.77600098    4.90999985    2.91000009
   14.23305511  179.80599976    4.90999985    2.93000007
   14.23611164  178.91499329    4.90999985    2.91000009
   14.23944473  178.13099670    4.90999985    2.91000009
   14.24277782  185.23199463    4.90999985    2.91000009
   14.24583340  180.23300171    4.90999985    2.91000009
   14.24916649  173.89199829    4.90999985    2.93000007
   14.25222206  177.98899841    4.90999985    2.91000009
   14.25472260  186.25700378    4.90999985    2.93000007
   14.25583363  163.49200439    4.90999985    2.94000006
   14.25916672  171.13699341    4.90999985    2.91000009
   14.26527786  171.13699341    4.90999985    2.93000007
   14.26944447  160.42100525    4.90999985    2.94000006
   14.28805637  170.19299316    4.90999985    2.91000009
   14.28916740  166.08200073    4.90999985    2.93000007
   14.29250050  180.55599976    4.90999985    2.93000007
   14.29555607  184.44000244    4.90999985    2.93000007
   14.29888916  173.05099487    4.90999985    2.93000007
   14.30194473  173.23800659    4.90999985    2.93000007
   14.30833340  173.23800659    4.90999985    2.93000007
   14.31250000  163.92300415    4.90999985    2.93000007
   14.31555557  172.62600708    4.90999985    2.93000007
   14.31888866  183.48100281    4.90999985    2.93000007
   14.32138920  189.97200012    4.90999985    2.93000007
   14.32250023  183.51499939    4.90999985    2.91000009
   14.32555580  166.39500427    4.90999985    2.93000007
   14.32888889  168.09800720    4.90999985    2.93000007
   14.33222198  171.98199463    4.90999985    2.93000007
   14.33527756  186.89799500    4.90999985    2.93000007
   14.33861065  179.60400391    4.90999985    2.93000007
   14.34194374  172.67999268    4.90999985    2.93000007
   14.34499931  159.81100464    4.90999985    2.93000007
   14.35111141  159.81100464    4.90999985    2.91000009
   14.35527802  178.48800659    4.90999985    2.94000006
   14.35861111  163.48500061    4.90999985    2.93000007
   14.36166668  178.33900452    4.90999985    2.91000009
   14.36500072  174.27999878    4.90999985    2.93000007
   14.36805534  167.28100586    4.90999985    2.93000007
   14.37138939  187.22700500    4.90999985    2.91000009
   14.37472248  185.93299866    4.90999985    2.93000007
   14.37777805  171.49699402    4.90999985    2.93000007
   14.38111115  178.22200012    4.90999985    2.91000009
   14.38444424  178.13600159    4.90999985    2.93000007
   14.38749981  159.12800598    4.90999985    2.91000009
   14.38805580  181.71899414    4.90999985    2.93000007
   14.39388847  181.71899414    4.90999985    2.94000006
   14.39805508  175.54600525    4.90999985    2.91000009
   14.40138817  185.68400574    4.90999985    2.94000006
   14.40444374  160.83099365    4.90999985    2.91000009
   14.40777779  173.21600342    4.90999985    2.93000007
   14.41111088  166.57000732    4.90999985    2.93000007
   14.41416645  175.44900513    4.90999985    2.94000006
   14.41750050  173.23100281    4.90999985    2.93000007
   14.42083359  166.56599426    4.90999985    2.93000007
   14.42138958  172.24600220    4.90999985    2.93000007
   14.42444515  165.54400635    4.90999985    2.93000007
   14.42750072  176.08799744    4.90999985    2.93000007
   14.43083382  177.23899841    4.90999985    2.91000009
   14.43694496  177.23899841    4.90999985    2.93000007
   14.44083309  170.44900513    4.90999985    2.93000007
   14.44416714  174.37600708    4.90999985    2.93000007
   14.44750023  170.80999756    4.90999985    2.93000007
   14.45055580  164.36000061    4.90999985    2.93000007
   14.45388889  178.74400330    4.90999985    2.93000007
   14.45472240  165.40800476    4.90999985    2.94000006
   14.45749950  161.76300049    4.90999985    2.93000007
   14.46055508  169.28799438    4.90999985    2.93000007
   14.46388912  162.04299927    4.90999985    2.93000007
   14.46722221  162.68400574    4.90999985    2.93000007
   14.47027779  161.24499512    4.90999985    2.89000010
   14.47361088  161.21099854    4.90999985    2.91000009
   14.47972202  161.21099854    4.90999985    2.93000007
   14.48388958  157.41299438    4.90999985    2.93000007
   14.48694515  160.05799866    4.90999985    2.93000007
   14.48805618  166.22700500    4.90999985    2.93000007
   14.49083328  167.46499634    4.90999985    2.93000007
   14.49416733  166.73199463    4.90999985    2.94000006
   14.49722290  168.47999573    4.90999985    2.93000007
   14.50055599  161.07299805    4.90999985    2.93000007
   14.50361156  165.85400391    4.90999985    2.93000007
   14.50694466  157.22399902    4.90999985    2.93000007
   14.51027775  157.10800171    4.90999985    2.93000007
   14.51333332  168.51199341    4.90999985    2.91000009
   14.51666641  152.03599548    4.90999985    2.93000007
   14.52250004  152.03599548    4.90999985    2.93000007
   14.52666664  166.15400696    4.90999985    2.91000009
   14.52999973  153.67700195    4.90999985    2.94000006
   14.53305531  143.65800476    4.90999985    2.94000006
   14.53638935  150.36900330    4.90999985    2.94000006
   14.53944492  149.63299561    4.90999985    2.94000006
   14.54277802  146.77799988    4.90999985    2.93000007
   14.54611111  149.15100098    4.90999985    2.91000009
   14.54916668  162.38499451    4.90999985    2.93000007
   14.55249977  156.94000244    4.90999985    2.93000007
   14.55472279  165.03599548    4.90999985    2.94000006
   14.55611134  154.77299500    4.90999985    2.93000007
   14.55916691  159.09800720    4.90999985    2.91000009
   14.56527805  159.09800720    4.90999985    2.93000007
   14.56944466  160.37399292    4.90999985    2.94000006
   14.57277775  149.27699280    4.90999985    2.91000009
   14.57583332  157.07000732    4.90999985    2.94000006
   14.57916641  160.82000732    4.90999985    2.94000006
   14.58249950  157.58399963    4.90999985    2.93000007
   14.58555508  163.21499634    4.90999985    2.93000007
   14.58805561  156.23199463    4.90999985    2.94000006
   14.58944416  163.13200378    4.90999985    2.94000006
   14.59249973  158.56300354    4.90999985    2.93000007
   14.59583282  152.35299683    4.90999985    2.91000009
   14.59916592  147.09100342    4.90999985    2.93000007
   14.60222244  155.18400574    4.90999985    2.93000007
   14.60833359  155.18400574    4.90999985    2.93000007
   14.61222267  154.41499329    4.90999985    2.93000007
   14.61555576  162.14999390    4.90999985    2.94000006
   14.61888885  156.09399414    4.90999985    2.93000007
   14.62138939  154.86399841    4.90999985    2.93000007
   14.62250042  157.70399475    4.90999985    2.93000007
   14.62555599  155.97799683    4.90999985    2.93000007
   14.62888908  158.26800537    4.90999985    2.93000007
   14.63222218  161.18899536    4.90999985    2.93000007
   14.63527775  149.14199829    4.90999985    2.93000007
   14.63861084  163.86300659    4.90999985    2.94000006
   14.64194393  161.95300293    4.90999985    2.93000007
   14.64499950  169.06199646    4.90999985    2.94000006
   14.65111065  169.06199646    4.90999985    2.94000006
   14.65527725  160.67300415    4.90999985    2.94000006
   14.65833282  157.71099854    4.90999985    2.93000007
   14.66166592  155.96699524    4.90999985    2.93000007
   14.66499996  163.68800354    4.90999985    2.93000007
   14.66805553  160.27699280    4.90999985    2.93000007
   14.67138958  154.00999451    4.90999985    2.93000007
   14.67472267  150.02200317    4.90999985    2.91000009
   14.67777824  153.75100708    4.90999985    2.93000007
   14.68111134  158.86700439    4.90999985    2.94000006
   14.68416691  156.18200684    4.90999985    2.93000007
   14.68750000  151.53500366    4.90999985    2.93000007
   14.68805599  145.13299561    4.90999985    2.93000007
   14.69388866  145.13299561    4.90999985    2.91000009
   14.69805527  156.93699646    4.90999985    2.93000007
   14.70138836  150.28199768    4.90999985    2.93000007
   14.70444393  155.40400696    4.90999985    2.94000006
   14.70777798  145.78599548    4.90999985    2.94000006
   14.71083355  147.35899353    4.90999985    2.94000006
   14.71416664  150.34500122    4.90999985    2.94000006
   14.71749973  148.54100037    4.90999985    2.93000007
   14.72055531  146.67300415    4.90999985    2.94000006
   14.72138882  153.69200134    4.90999985    2.94000006
   14.72416592  156.42500305    4.90999985    2.94000006
   14.72749996  151.40800476    4.90999985    2.93000007
   14.73055553  143.79800415    4.90999985    2.93000007
   14.73666668  143.79800415    4.90999985    2.93000007
   14.74083328  152.80700684    4.90999985    2.93000007
   14.74416733  154.11000061    4.90999985    2.94000006
   14.74722290  153.87199402    4.90999985    2.93000007
   14.75055599  150.17500305    4.90999985    2.91000009
   14.75388908  150.15499878    4.90999985    2.94000006
   14.75472260  144.92399597    4.90999985    2.93000007
   14.75749969  144.96800232    4.90999985    2.93000007
   14.76083374  142.49899292    4.90999985    2.94000006
   14.76388931  147.76499939    4.90999985    2.94000006
   14.76722240  143.63499451    4.90999985    2.94000006
   14.77027798  145.87899780    4.90999985    2.93000007
   14.77361107  145.54200745    4.90999985    2.94000006
   14.77972221  145.54200745    4.90999985    2.94000006
   14.78361130  146.24699402    4.90999985    2.94000006
   14.78694534  145.29800415    4.90999985    2.94000006
   14.78805637  149.58599854    4.90999985    2.96000004
   14.79055595  143.64300537    4.90999985    2.93000007
   14.79388905  143.14999390    4.90999985    2.93000007
   14.79694462  144.44000244    4.90999985    2.94000006
   14.80027771  140.17799377    4.90999985    2.93000007
   14.80333328  145.69200134    4.90999985    2.93000007
   14.80666733  141.20500183    4.90999985    2.94000006
   14.81000042  144.63699341    4.90999985    2.93000007
   14.81305599  140.30700684    4.90999985    2.94000006
   14.81638908  153.69500732    4.90999985    2.94000006
   14.82250023  153.69500732    4.90999985    2.94000006
   14.82666683  135.24200439    4.90999985    2.94000006
   14.82972240  142.76400757    4.90999985    2.94000006
   14.83305550  141.08000183    4.90999985    2.93000007
   14.83611107  151.05700684    4.90999985    2.94000006
   14.83944416  146.69999695    4.90999985    2.93000007
   14.84277725  148.68899536    4.90999985    2.94000006
   14.84583282  142.96699524    4.90999985    2.94000006
   14.84916592  144.99800110    4.90999985    2.94000006
   14.85249996  150.73399353    4.90999985    2.93000007
   14.85472298  145.90699768    4.90999985    2.93000007
   14.85611153  150.88000488    4.90999985    2.94000006
   14.85916710  146.01300049    4.90999985    2.93000007
   14.86527824  146.01300049    4.90999985    2.94000006
   14.86944485  147.80700684    4.90999985    2.93000007
   14.87250042  142.29899597    4.90999985    2.93000007
   14.87583351  142.40199280    4.90999985    2.93000007
   14.87916660  144.57600403    4.90999985    2.94000006
   14.88222218  147.44400024    4.90999985    2.94000006
   14.88555527  150.16900635    4.90999985    2.94000006
   14.88805580  149.11900330    4.90999985    2.94000006
   14.88916683  149.33799744    4.90999985    2.94000006
   14.89222240  143.76699829    4.90999985    2.94000006
   14.89555550  141.61199951    4.90999985    2.89000010
   14.89888859  148.45899963    4.90999985    2.94000006
   14.90194416  151.27299500    4.90999985    2.93000007
   14.90805531  151.27299500    4.90999985    2.98000002
   14.91222191  145.01199341    4.90999985    2.94000006
   14.91555500  144.82099915    4.90999985    2.94000006
   14.91861153  149.27699280    4.90999985    2.96000004
   14.92138958  135.43899536    4.90999985    2.94000006
   14.92250061  138.53100586    4.90999985    2.94000006
   14.92555618  152.07099915    4.90999985    2.93000007
   14.92888927  141.05599976    4.90999985    2.94000006
   14.93222237  141.42300415    4.90999985    2.94000006
   14.93527794  143.60200500    4.90999985    2.93000007
   14.93861103  147.48500061    4.90999985    2.94000006
   14.94194412  151.76800537    4.90999985    2.94000006
   14.94499969  145.04499817    4.90999985    2.91000009
   14.95111084  145.04499817    4.90999985    2.93000007
   14.95499992  145.94599915    4.90999985    2.94000006
   14.95833302  143.37300110    4.90999985    2.94000006
   14.96166611  143.62399292    4.90999985    2.93000007
   14.96472168  148.29800415    4.90999985    2.93000007
   14.96805477  140.66400146    4.90999985    2.94000006
   14.97111034  149.24099731    4.90999985    2.96000004
   14.97444439  144.33099365    4.90999985    2.93000007
   14.97777748  145.95399475    4.90999985    2.93000007
   14.98083305  151.74200439    4.90999985    2.93000007
   14.98416710  153.53700256    4.90999985    2.93000007
   14.98750019  146.77499390    4.90999985    2.94000006
   14.98805618  151.45899963    4.90999985    2.94000006
   14.99388885  151.45899963    4.90999985    2.94000006
   14.99805546  147.14599609    4.90999985    2.96000004
   15.00111103  145.67399597    4.90999985    2.94000006
   15.00444412  144.57800293    4.90999985    2.93000007
   15.00777817  141.52400208    4.90999985    2.94000006
   15.01083374  150.69099426    4.90999985    2.94000006
   15.01416683  140.11599731    4.90999985    2.93000007
   15.01749992  139.47200012    4.90999985    2.94000006
   15.02055550  141.82299805    4.90999985    2.93000007
   15.02138901  136.49000549    4.90999985    2.93000007
   15.02416611  142.17300415    4.90999985    2.93000007
   15.02750015  148.14399719    4.90999985    2.94000006
   15.03055573  138.87399292    4.90999985    2.93000007
   15.03666687  138.87399292    4.90999985    2.94000006
   15.04083347  144.24400330    4.90999985    2.93000007
   15.04416752  142.42700195    4.90999985    2.94000006
   15.04722309  142.53799438    4.90999985    2.96000004
   15.05055618  147.40600586    4.90999985    2.94000006
   15.05361176  146.35499573    4.90999985    2.94000006
   15.05472279  146.66999817    4.90999985    2.94000006
   15.05722237  145.72599792    4.90999985    2.96000004
   15.06055546  146.61399841    4.90999985    2.94000006
   15.06361103  146.56199646    4.90999985    2.94000006
   15.06694412  146.38299561    4.90999985    2.94000006
   15.07027817  150.70899963    4.90999985    2.94000006
   15.07333374  141.19299316    4.90999985    2.94000006
   15.07944393  141.19299316    4.90999985    2.94000006
   15.08361053  154.57200623    4.90999985    2.93000007
   15.08694458  156.19500732    4.90999985    2.94000006
   15.08805561  146.88499451    4.90999985    2.93000007
   15.09055519  144.88400269    4.90999985    2.96000004
   15.09388828  149.60099792    4.90999985    2.94000006
   15.09694386  159.83700562    4.90999985    2.93000007
   15.10027790  152.83299255    4.90999985    2.94000006
   15.10333347  152.67100525    4.90999985    2.93000007
   15.10666752  152.91999817    4.90999985    2.96000004
   15.11000061  151.82899475    4.90999985    2.93000007
   15.11305618  159.95500183    4.90999985    2.94000006
   15.11638927  152.19200134    4.90999985    2.94000006
   15.12250042  152.19200134    4.90999985    2.94000006
   15.12638855  156.82099915    4.90999985    2.93000007
   15.12972260  149.99499512    4.90999985    2.94000006
   15.13305569  150.25000000    4.90999985    2.94000006
   15.13611126  153.64700317    4.90999985    2.94000006
   15.13944435  146.72200012    4.90999985    2.94000006
   15.14277744  148.26499939    4.90999985    2.94000006
   15.14583302  139.66999817    4.90999985    2.96000004
   15.14916611  151.28399658    4.90999985    2.96000004
   15.15222168  141.81900024    4.90999985    2.94000006
   15.15472221  150.67599487    4.90999985    2.94000006
   15.15611076  143.42900085    4.90999985    2.94000006
   15.15944386  143.47700500    4.90999985    2.94000006
   15.16527748  143.47700500    4.90999985    2.94000006
   15.16944504  150.68699646    4.90999985    2.96000004
   15.17250061  150.91200256    4.90999985    2.94000006
   15.17583370  139.13999939    4.90999985    2.94000006
   15.17916679  158.57800293    4.90999985    2.94000006
   15.18222237  144.67900085    4.90999985    2.94000006
   15.18555546  149.09199524    4.90999985    2.94000006
   15.18805599  144.51499939    4.90999985    2.94000006
   15.18916702  146.41700745    4.90999985    2.94000006
   15.19250011  143.73199463    4.90999985    2.93000007
   15.19555569  154.41999817    4.90999985    2.94000006
   15.19888878  148.05200195    4.90999985    2.94000006
   15.20222187  153.41900635    4.90999985    2.94000006
   15.20805550  153.41900635    4.90999985    2.94000006
   15.21222210  151.10800171    4.90999985    2.93000007
   15.21555519  145.04200745    4.90999985    2.94000006
   15.21861076  143.60099792    4.90999985    2.94000006
   15.22138882  150.51600647    4.90999985    2.94000006
   15.22222137  143.79200745    4.90999985    2.94000006
   15.22555542  150.94700623    4.90999985    2.94000006
   15.22861099  150.63699341    4.90999985    2.93000007
   15.23194408  152.05299377    4.90999985    2.93000007
   15.23527813  157.48899841    4.90999985    2.96000004
   15.23833370  146.55700684    4.90999985    2.94000006
   15.24166679  147.31799316    4.90999985    2.93000007
   15.24472237  145.40800476    4.90999985    2.94000006
   15.25083351  145.40800476    4.90999985    2.93000007
   15.25500011  149.60800171    4.90999985    2.96000004
   15.25833321  142.30499268    4.90999985    2.94000006
   15.26138878  149.34300232    4.90999985    2.94000006
   15.26472187  140.82800293    4.90999985    2.94000006
   15.26805496  142.05299377    4.90999985    2.94000006
   15.27111053  145.92399597    4.90999985    2.94000006
   15.27444458  155.08299255    4.90999985    2.94000006
   15.27750015  141.72799683    4.90999985    2.93000007
   15.28083324  143.54899597    4.90999985    2.94000006
   15.28416729  155.88600159    4.90999985    2.93000007
   15.28722286  143.61799622    4.90999985    2.94000006
   15.28805637  142.90199280    4.90999985    2.93000007
   15.30888939  142.90199280    4.90999985    2.94000006
   15.31305599  146.71499634    4.90999985    2.94000006
   15.31611156  142.86999512    4.90999985    2.94000006
   15.31944466  150.56399536    4.90999985    2.94000006
   15.32138920  143.80200195    4.90999985    2.94000006
   15.32305527  141.83700562    4.90999985    2.94000006
   15.32638836  153.51699829    4.90999985    2.93000007
   15.32944393  141.69900513    4.90999985    2.94000006
   15.33277798  142.44700623    4.90999985    2.96000004
   15.33611107  144.41799927    4.90999985    2.94000006
   15.33916664  147.53700256    4.90999985    2.94000006
   15.34249973  154.60800171    4.90999985    2.94000006
   15.34555531  146.54400635    4.90999985    2.94000006
   15.35166740  146.54400635    4.90999985    2.96000004
   15.35555553  151.93800354    4.90999985    2.94000006
   15.35888958  150.89300537    4.90999985    2.94000006
   15.36222267  148.07499695    4.90999985    2.93000007
   15.36527824  152.73599243    4.90999985    2.94000006
   15.36861134  146.99400330    4.90999985    2.93000007
   15.37194443  145.32499695    4.90999985    2.94000006
   15.37500000  148.26699829    4.90999985    2.96000004
   15.37833309  149.03599548    4.90999985    2.96000004
   15.38138866  146.34100342    4.90999985    2.94000006
   15.38472176  158.83399963    4.90999985    2.93000007
   15.38805580  145.48300171    4.90999985    2.94000006
   15.38861084  140.77999878    4.90999985    2.94000006
   15.39444447  140.77999878    4.90999985    2.94000006
   15.39861107  150.31199646    4.90999985    2.94000006
   15.40166664  146.61900330    4.90999985    2.94000006
   15.40499973  147.56599426    4.90999985    2.94000006
   15.40833282  149.18200684    4.90999985    2.93000007
   15.41138840  144.66799927    4.90999985    2.94000006
   15.41472149  150.72200012    4.90999985    2.94000006
   15.41777802  148.86000061    4.90999985    2.94000006
   15.42111111  143.61900330    4.90999985    2.94000006
   15.42194462  153.14100647    4.90999985    2.94000006
   15.42472267  145.70100403    4.90999985    2.94000006
   15.42805576  147.55599976    4.90999985    2.93000007
   15.43138885  145.20799255    4.90999985    2.93000007
   15.43722248  145.20799255    4.90999985    2.94000006
   15.44138908  149.11799622    4.90999985    2.94000006
   15.44472218  146.90899658    4.90999985    2.96000004
   15.44777775  145.54499817    4.90999985    2.94000006
   15.45111084  147.75100708    4.90999985    2.93000007
   15.45416641  152.85600281    4.90999985    2.93000007
   15.45527744  146.04800415    4.90999985    2.94000006
   15.45777798  144.23199463    4.90999985    2.94000006
   15.46111107  146.03900146    4.90999985    2.96000004
   15.46444416  146.05499268    4.90999985    2.91000009
   15.46749973  142.17999268    4.90999985    2.94000006
   15.47083282  139.53100586    4.90999985    2.94000006
   15.47388840  148.24800110    4.90999985    2.94000006
   15.47999954  148.24800110    4.90999985    2.94000006
   15.48416710  142.03300476    4.90999985    2.94000006
   15.48750019  149.49200439    4.90999985    2.94000006
   15.48861122  141.34500122    4.90999985    2.96000004
   15.49111176  140.43699646    4.90999985    2.94000006
   15.49444485  153.30999756    4.90999985    2.94000006
   15.49777794  147.81399536    4.90999985    2.94000006
   15.50083351  149.16900635    4.90999985    2.94000006
   15.50416660  148.62399292    4.90999985    2.94000006
   15.50722218  142.83500671    4.90999985    2.96000004
   15.51055527  145.47399902    4.90999985    2.94000006
   15.51388931  149.07400513    4.90999985    2.94000006
   15.51694393  140.38600159    4.90999985    2.94000006
   15.52305508  140.38600159    4.90999985    2.94000006
   15.52694416  145.68299866    4.90999985    2.94000006
   15.53027725  150.22099304    4.90999985    2.94000006
   15.53361130  145.33200073    4.90999985    2.96000004
   15.53666687  155.22900391    4.90999985    2.96000004
   15.54000092  154.75399780    4.90999985    2.94000006
   15.54333401  143.79200745    4.90999985    2.94000006
   15.54638958  143.44700623    4.90999985    2.94000006
   15.54972267  141.03599548    4.90999985    2.96000004
   15.55277824  139.91799927    4.90999985    2.94000006
   15.55527782  136.79499817    4.90999985    2.94000006
   15.55638885  153.34500122    4.90999985    2.96000004
   15.55972195  144.66400146    4.90999985    2.94000006
   15.56583309  144.66400146    4.90999985    2.94000006
   15.56999969  138.40899658    4.90999985    2.94000006
   15.57305527  145.67599487    4.90999985    2.94000006
   15.57638836  148.79299927    4.90999985    2.94000006
   15.57972240  144.07699585    4.90999985    2.94000006
   15.58277798  147.95599365    4.90999985    2.94000006
   15.58611107  143.81300354    4.90999985    2.94000006
   15.58861065  143.44700623    4.90999985    2.94000006
   15.58972168  147.02699280    4.90999985    2.94000006
   15.59305477  149.21299744    4.90999985    2.96000004
   15.59638882  141.72000122    4.90999985    2.94000006
   15.59944439  143.28500366    4.90999985    2.93000007
   15.60277843  150.53399658    4.90999985    2.94000006
   15.60861111  150.53399658    4.90999985    2.94000006
   15.61277771  144.48199463    4.90999985    2.96000004
   15.61611176  143.29100037    4.90999985    2.94000006
   15.61916637  142.49899292    4.90999985    2.94000006
   15.62194443  144.50399780    4.90999985    2.94000006
   15.62277794  139.78300476    4.90999985    2.94000006
   15.62611103  141.35499573    4.90999985    2.96000004
   15.62944412  139.43699646    4.90999985    2.94000006
   15.63249969  134.39599609    4.90999985    2.94000006
   15.63583279  135.35000610    4.90999985    2.94000006
   15.63888836  137.06399536    4.90999985    2.94000006
   15.64222240  146.70700073    4.90999985    2.96000004
   15.64555550  144.39900208    4.90999985    2.94000006
   15.65138817  144.39900208    4.90999985    2.94000006
   15.65555477  149.19400024    4.90999985    2.96000004
   15.65888882  146.42700195    4.90999985    2.96000004
   15.66194439  147.33700562    4.90999985    2.94000006
   15.66527748  141.05900574    4.90999985    2.94000006
   15.66861153  142.54400635    4.90999985    2.94000006
   15.67166710  139.45500183    4.90999985    2.96000004
   15.67500019  143.48100281    4.90999985    2.96000004
   15.67833328  145.83399963    4.90999985    2.96000004
   15.68138885  146.07099915    4.90999985    2.96000004
   15.68472195  141.94000244    4.90999985    2.98000002
   15.68777752  147.72300720    4.90999985    2.94000006
   15.68861103  146.49699402    4.90999985    2.94000006
   15.69444466  146.49699402    4.90999985    2.96000004
   15.69833374  145.34700012    4.90999985    2.94000006
   15.70166683  141.21899414    4.90999985    2.96000004
   15.70499992  143.83099365    4.90999985    2.94000006
   15.70805550  146.37899780    4.90999985    2.94000006
   15.71138859  139.07299805    4.90999985    2.96000004
   15.71472168  140.04899597    4.90999985    2.93000007
   15.71777725  131.84500122    4.90999985    2.96000004
   15.72111034  139.83599854    4.90999985    2.94000006
   15.72194386  142.10299683    4.90999985    2.96000004
   15.72472191  148.03799438    4.90999985    2.96000004
   15.72805500  141.89700317    4.90999985    2.94000006
   15.73138809  140.11399841    4.90999985    2.94000006
   15.73722267  140.11399841    4.90999985    2.94000006
   15.74138927  144.43600464    4.90999985    2.94000006
   15.74444485  144.36500549    4.90999985    2.94000006
   15.74777794  149.99000549    4.90999985    2.94000006
   15.75111103  147.81900024    4.90999985    2.94000006
   15.75416660  147.46699524    4.90999985    2.94000006
   15.75527763  142.91900635    4.90999985    2.94000006
   15.75777817  155.15400696    4.90999985    2.94000006
   15.76111126  148.29200745    4.90999985    2.94000006
   15.76444435  143.43699646    4.90999985    2.94000006
   15.76749992  147.77099609    4.90999985    2.94000006
   15.77083302  149.05599976    4.90999985    2.94000006
   15.77416611  149.68800354    4.90999985    2.96000004
   15.77999973  149.68800354    4.90999985    2.94000006
   15.78416729  141.58000183    4.90999985    2.94000006
   15.78750038  146.11700439    4.90999985    2.94000006
   15.78861141  145.81100464    4.90999985    2.94000006
   15.79111195  149.80499268    4.90999985    2.96000004
   15.79416752  149.00900269    4.90999985    2.96000004
   15.79750061  145.48300171    4.90999985    2.94000006
   15.80083370  146.61300659    4.90999985    2.96000004
   15.80388927  143.92199707    4.90999985    2.94000006
   15.80722237  146.67500305    4.90999985    2.96000004
   15.81027794  144.91499329    4.90999985    2.94000006
   15.81361103  148.32499695    4.90999985    2.94000006
   15.81694412  152.00000000    4.90999985    2.94000006
   15.82277775  152.00000000    4.90999985    2.98000002
   15.82694435  148.24499512    4.90999985    2.93000007
   15.83027744  142.96899414    4.90999985    2.94000006
   15.83333302  142.89500427    4.90999985    2.94000006
   15.83666611  148.25999451    4.90999985    2.94000006
   15.84000015  149.25599670    4.90999985    2.98000002
   15.84305477  148.30000305    4.90999985    2.94000006
   15.84638882  153.04699707    4.90999985    2.96000004
   15.84972191  155.77900696    4.90999985    2.94000006
   15.85277843  151.01199341    4.90999985    2.96000004
   15.85527802  144.82600403    4.90999985    2.94000006
   15.85638905  148.82600403    4.90999985    2.94000006
   15.85972214  144.35499573    4.90999985    2.94000006
   15.86583328  144.35499573    4.90999985    2.94000006
   15.86972237  145.87800598    4.90999985    2.96000004
   15.87305546  148.39999390    4.90999985    2.96000004
   15.87638855  149.35000610    4.90999985    2.94000006
   15.87944412  145.28100586    4.90999985    2.96000004
   15.88277817  146.70700073    4.90999985    2.94000006
   15.88611126  146.53700256    4.90999985    2.94000006
   15.88861084  152.81700134    4.90999985    2.94000006
   15.88944435  144.30000305    4.90999985    2.96000004
   15.89277744  145.37600708    4.90999985    2.94000006
   15.89611053  150.76100159    4.90999985    2.94000006
   15.89916611  152.32099915    4.90999985    2.96000004
   15.90249920  151.93299866    4.90999985    2.94000006
   15.90861034  151.93299866    4.90999985    2.96000004
   15.91277695  151.67999268    4.90999985    2.94000006
   15.91583252  145.55900574    4.90999985    2.94000006
   15.91916656  149.35000610    4.90999985    2.94000006
   15.92194462  148.75399780    4.90999985    2.96000004
   15.92305565  146.56799316    4.90999985    2.94000006
   15.92611122  148.68299866    4.90999985    2.96000004
   15.92944431  142.38800049    4.90999985    2.94000006
   15.93249989  148.51899719    4.90999985    2.94000006
   15.93583298  153.39199829    4.90999985    2.94000006
   15.93916702  150.12300110    4.90999985    2.96000004
   15.94222260  142.77299500    4.90999985    2.94000006
   15.94555569  145.48500061    4.90999985    2.94000006
   15.95138836  145.48500061    4.90999985    2.94000006
   15.95555496  143.71400452    4.90999985    2.94000006
   15.95888901  146.43099976    4.90999985    2.96000004
   15.96194458  147.06199646    4.90999985    2.96000004
   15.96527767  144.94599915    4.90999985    2.96000004
   15.96861076  148.52900696    4.90999985    2.96000004
   15.97166634  150.53799438    4.90999985    2.96000004
   15.97499943  144.27600098    4.90999985    2.94000006
   15.97805500  143.23500061    4.90999985    2.96000004
   15.98138809  147.71600342    4.90999985    2.94000006
   15.98472214  146.34899902    4.90999985    2.94000006
   15.98777771  141.65899658    4.90999985    2.96000004
   15.98861122  143.68699646    4.90999985    2.96000004
   15.99416733  143.68699646    4.90999985    2.96000004
   15.99833393  142.96099854    4.90999985    2.96000004
   16.00166702  144.98899841    4.90999985    2.96000004
   16.00472260  144.32299805    4.90999985    2.94000006
   16.00805473  145.50399780    4.90999985    2.96000004
   16.01138878  151.10099792    4.90999985    2.94000006
   16.01444435  145.16200256    4.90999985    2.96000004
   16.01777840  148.33500671    4.90999985    2.96000004
   16.02083397  149.53399658    4.90999985    2.94000006
   16.02194405  147.74899292    4.90999985    2.94000006
   16.02472115  151.83900452    4.90999985    2.94000006
   16.02777672  147.22700500    4.90999985    2.94000006
   16.03111076  145.91999817    4.90999985    2.94000006
   16.03722191  145.91999817    4.90999985    2.94000006
   16.04111099  141.71099854    4.90999985    2.94000006
   16.04444313  147.13299561    4.90999985    2.94000006
   16.04777718  146.17599487    4.90999985    2.94000006
   16.05083275  147.19900513    4.90999985    2.96000004
   16.05416679  151.42500305    4.90999985    2.94000006
   16.05527687  146.33000183    4.90999985    2.94000006
   16.05777740  149.25999451    4.90999985    2.94000006
   16.06083298  143.22700500    4.90999985    2.96000004
   16.06416512  151.29100037    4.90999985    2.96000004
   16.06722260  150.10699463    4.90999985    2.96000004
   16.07055664  149.75599670    4.90999985    2.94000006
   16.07389069  147.40699768    4.90999985    2.94000006
   16.08000183  147.40699768    4.90999985    2.94000006
   16.08416748  149.76600647    4.90999985    2.94000006
   16.08722305  147.24699402    4.90999985    2.94000006
   16.08861160  152.27999878    4.90999985    2.94000006
   16.09111214  141.67900085    4.90999985    2.96000004
   16.09416771  151.78399658    4.90999985    2.94000006
   16.09749985  146.50999451    4.90999985    2.96000004
   16.10055542  148.08500671    4.90999985    2.96000004
   16.10388947  149.12899780    4.90999985    2.93000007
   16.10722351  147.18800354    4.90999985    2.94000006
   16.11027908  141.13999939    4.90999985    2.96000004
   16.11361122  150.99400330    4.90999985    2.96000004
   16.11694527  137.38299561    4.90999985    2.94000006
   16.12277794  137.38299561    4.90999985    2.96000004
   16.12694550  154.12100220    4.90999985    2.94000006
   16.13000107  158.94299316    4.90999985    2.94000006
   16.13333321  147.00799561    4.90999985    2.94000006
   16.13666725  151.47300720    4.90999985    2.94000006
   16.13972282  149.30000305    4.90999985    2.96000004
   16.14305496  150.72000122    4.90999985    2.94000006
   16.14638901  150.69599915    4.90999985    2.94000006
   16.14944458  146.18499756    4.90999985    2.94000006
   16.15277672  151.92799377    4.90999985    2.96000004
   16.15527725  149.49400330    4.90999985    2.98000002
   16.15638924  153.69999695    4.90999985    2.96000004
   16.15944481  151.27799988    4.90999985    2.96000004
   16.16555595  151.27799988    4.90999985    2.94000006
   16.16972160  155.33900452    4.90999985    2.96000004
   16.17305565  150.77900696    4.90999985    2.94000006
   16.17611122  151.58099365    4.90999985    2.94000006
   16.17944336  148.58500671    4.90999985    2.96000004
   16.18277740  153.77200317    4.90999985    2.96000004
   16.18583298  148.84300232    4.90999985    2.96000004
   16.18861008  154.02400208    4.90999985    2.94000006
   16.18972206  151.18200684    4.90999985    2.94000006
   16.19277763  149.18099976    4.90999985    2.94000006
   16.19610977  148.46499634    4.90999985    2.94000006
   16.19944382  149.98800659    4.90999985    2.96000004
   16.20250130  153.62300110    4.90999985    2.94000006
   16.20833397  153.62300110    4.90999985    2.94000006
   16.21250153  151.55000305    4.90999985    2.94000006
   16.21583366  154.83000183    4.90999985    2.94000006
   16.21916771  150.25500488    4.90999985    2.96000004
   16.22194481  154.46099854    4.90999985    2.94000006
   16.22277832  159.59700012    4.90999985    2.94000006
   16.22583389  156.66999817    4.90999985    2.94000006
   16.22916794  152.38299561    4.90999985    2.94000006
   16.23250008  156.90800476    4.90999985    2.96000004
   16.23555565  158.61900330    4.90999985    2.96000004
   16.23888969  153.06599426    4.90999985    2.94000006
   16.24194527  159.30400085    4.90999985    2.94000006
   16.24527740  149.95700073    4.90999985    2.94000006
   16.25138855  149.95700073    4.90999985    2.96000004
   16.25555611  155.46800232    4.90999985    2.96000004
   16.25861168  152.37500000    4.90999985    2.96000004
   16.26194382  158.10000610    4.90999985    2.94000006
   16.26499939  147.25300598    4.90999985    2.96000004
   16.26833344  152.57800293    4.90999985    2.96000004
   16.27166557  160.95199585    4.90999985    2.96000004
   16.27472115  160.59500122    4.90999985    2.96000004
   16.27805519  150.85200500    4.90999985    2.96000004
   16.28138924  153.63200378    4.90999985    2.96000004
   16.28444481  146.17300415    4.90999985    2.94000006
   16.28777695  149.42799377    4.90999985    2.96000004
   16.28861046  148.52699280    4.90999985    2.96000004
   16.29416656  148.52699280    4.90999985    2.98000002
   16.29833221  159.55099487    4.90999985    2.96000004
   16.30138779  157.22000122    4.90999985    2.96000004
   16.30472183  157.24299622    4.90999985    2.96000004
   16.32222366  158.30599976    4.90999985    2.96000004
   16.32472229  158.99200439    4.90999985    2.96000004
   16.32805634  156.09100342    4.90999985    2.94000006
   16.33111191  155.12300110    4.90999985    2.98000002
   16.33722305  155.12300110    4.90999985    2.94000006
   16.34138870  151.27200317    4.90999985    2.94000006
   16.34444427  159.54499817    4.90999985    2.96000004
   16.34777832  167.75199890    4.90999985    2.96000004
   16.35111237  162.88699341    4.90999985    2.94000006
   16.35416794  175.07299805    4.90999985    2.96000004
   16.35555649  160.63699341    4.90999985    2.96000004
   16.35805511  172.17799377    4.90999985    2.96000004
   16.36111069  166.44500732    4.90999985    2.96000004
   16.36444473  168.87800598    4.90999985    2.96000004
   16.36777878  169.75599670    4.90999985    2.96000004
   16.37083435  173.20599365    4.90999985    2.94000006
   16.37416649  168.62600708    4.90999985    2.96000004
   16.38000107  168.62600708    4.90999985    2.96000004
   16.38416672  176.52000427    4.90999985    2.96000004
   16.38750076  173.07000732    4.90999985    2.96000004
   16.38888931  173.56500244    4.90999985    2.96000004
   16.39111137  165.95300293    4.90999985    2.96000004
   16.39416695  171.58000183    4.90999985    2.96000004
   16.39749908  161.44500732    4.90999985    2.98000002
   16.40083313  156.80200195    4.90999985    2.96000004
   16.40388870  168.64100647    4.90999985    2.96000004
   16.40722275  174.72000122    4.90999985    2.96000004
   16.41055489  177.33299255    4.90999985    2.96000004
   16.41361046  165.92599487    4.90999985    2.96000004
   16.41694450  155.20899963    4.90999985    2.96000004
   16.42277718  155.20899963    4.90999985    2.96000004
   16.42694473  175.40800476    4.90999985    2.96000004
   16.43027687  149.64399719    4.90999985    2.96000004
   16.43333244  165.15600586    4.90999985    2.98000002
   16.43666649  161.03999329    4.90999985    2.96000004
   16.43999863  159.38800049    4.90999985    2.96000004
   16.44305420  151.11300659    4.90999985    2.96000004
   16.44638824  160.86199951    4.90999985    2.96000004
   16.44972038  163.49600220    4.90999985    2.96000004
   16.45277786  162.91299438    4.90999985    2.96000004
   16.45555687  164.55599976    4.90999985    2.96000004
   16.45666695  156.63299561    4.90999985    2.96000004
   16.45972252  154.44999695    4.90999985    2.96000004
   16.46583366  154.44999695    4.90999985    2.94000006
   16.46972275  159.63600159    4.90999985    2.96000004
   16.47305679  158.53599548    4.90999985    2.96000004
   16.47638893  162.65699768    4.90999985    2.96000004
   16.47944450  165.44200134    4.90999985    2.98000002
   16.48277855  162.92500305    4.90999985    2.96000004
   16.48611069  153.62399292    4.90999985    2.96000004
   16.48888969  163.33700562    4.90999985    2.96000004
   16.48972321  163.47200012    4.90999985    2.96000004
   16.49277878  168.14100647    4.90999985    2.96000004
   16.49611092  158.37899780    4.90999985    2.96000004
   16.49944496  157.71499634    4.90999985    2.96000004
   16.50250053  158.35099792    4.90999985    2.98000002
   16.50861168  158.35099792    4.90999985    2.96000004
   16.51277733  156.50300598    4.90999985    2.96000004
   16.51583290  159.26800537    4.90999985    2.96000004
   16.51916695  161.41000366    4.90999985    2.96000004
   16.52222252  159.32800293    4.90999985    2.96000004
   16.52277756  159.97900391    4.90999985    2.96000004
   16.52583313  160.11500549    4.90999985    2.96000004
   16.52916718  160.32600403    4.90999985    2.94000006
   16.53249931  161.33500671    4.90999985    2.96000004
   16.53555489  166.42700195    4.90999985    2.96000004
   16.53888893  168.26300049    4.90999985    2.98000002
   16.54222107  161.90800476    4.90999985    2.98000002
   16.54527664  163.13699341    4.90999985    2.98000002
   16.55138779  163.13699341    4.90999985    2.96000004
   16.55555534  153.72099304    4.90999985    2.96000004
   16.55611038  160.78999329    4.90999985    2.96000004
   16.55916595  150.24800110    4.90999985    2.96000004
   16.56250000  169.42500305    4.90999985    2.94000006
   16.56583214  165.50700378    4.90999985    2.94000006
   16.56888962  155.04600525    4.90999985    2.94000006
   16.57222366  150.95799255    4.90999985    2.94000006
   16.57555580  160.19200134    4.90999985    2.96000004
   16.57861137  159.43499756    4.90999985    2.96000004
   16.58194542  156.96600342    4.90999985    2.94000006
   16.58527756  152.40600586    4.90999985    2.94000006
   16.58833313  158.88499451    4.90999985    2.94000006
   16.58889008  159.42199707    4.90999985    2.94000006
   16.59416771  159.42199707    4.90999985    2.96000004
   16.59833336  169.34100342    4.90999985    2.96000004
   16.60166740  153.36399841    4.90999985    2.94000006
   16.60472298  140.35400391    4.90999985    2.94000006
   16.60805511  147.44000244    4.90999985    2.94000006
   16.61138916  160.74499512    4.90999985    2.94000006
   16.61444473  162.61999512    4.90999985    2.96000004
   16.61777878  150.73199463    4.90999985    2.94000006
   16.62111092  160.17999268    4.90999985    2.96000004
   16.62222290  155.01699829    4.90999985    2.96000004
   16.62472153  156.69799805    4.90999985    2.96000004
   16.62805557  162.28700256    4.90999985    2.96000004
   16.63111115  164.91400146    4.90999985    2.96000004
   16.63722229  164.91400146    4.90999985    2.94000006
   16.64111137  156.48300171    4.90999985    2.96000004
   16.64444351  152.63800049    4.90999985    2.96000004
   16.64777756  155.97700500    4.90999985    2.96000004
   16.65083313  152.63299561    4.90999985    2.96000004
   16.65416718  156.04100037    4.90999985    2.94000006
   16.65555573  150.03799438    4.90999985    2.94000006
   16.65777779  156.57899475    4.90999985    2.94000006
   16.66110992  151.52900696    4.90999985    2.94000006
   16.66416550  155.73300171    4.90999985    2.94000006
   16.66749954  148.31100464    4.90999985    2.96000004
   16.67055511  159.98599243    4.90999985    2.94000006
   16.67388916  155.06700134    4.90999985    2.94000006
   16.68000031  155.06700134    4.90999985    2.94000006
   16.68416595  146.85200500    4.90999985    2.94000006
   16.68722153  158.81300354    4.90999985    2.94000006
   16.68888855  163.83399963    4.90999985    2.96000004
   16.69111061  151.94999695    4.90999985    2.96000004
   16.69444275  161.78799438    4.90999985    2.94000006
   16.69749832  161.88099670    4.90999985    2.94000006
   16.70083427  167.76800537    4.90999985    2.96000004
   16.70388985  159.98199463    4.90999985    2.94000006
   16.70722389  164.25100708    4.90999985    2.96000004
   16.71055603  165.38999939    4.90999985    2.94000006
   16.71361160  166.27600098    4.90999985    2.96000004
   16.71694565  154.64399719    4.90999985    2.94000006
   16.72277832  154.64399719    4.90999985    2.96000004
   16.72694588  158.57099915    4.90999985    2.94000006
   16.73027802  152.14100647    4.90999985    2.96000004
   16.73333359  158.82099915    4.90999985    2.96000004
   16.73666763  150.94299316    4.90999985    2.96000004
   16.73972321  144.21200562    4.90999985    2.94000006
   16.74305534  152.41099548    4.90999985    2.94000006
   16.74638939  149.50900269    4.90999985    2.94000006
   16.74944496  151.85800171    4.90999985    2.98000002
   16.75277710  159.50500488    4.90999985    2.96000004
   16.75555611  156.58000183    4.90999985    2.94000006
   16.75638962  157.60800171    4.90999985    2.96000004
   16.75972176  152.69999695    4.90999985    2.94000006
   16.76555634  152.69999695    4.90999985    2.94000006
   16.76972198  155.14100647    4.90999985    2.94000006
   16.77305603  158.88099670    4.90999985    2.96000004
   16.77611160  146.94599915    4.90999985    2.96000004
   16.77944374  151.30599976    4.90999985    2.96000004
   16.78277779  154.60899353    4.90999985    2.96000004
   16.78583336  151.68099976    4.90999985    2.96000004
   16.78888893  152.65699768    4.90999985    2.96000004
   16.78944397  146.23100281    4.90999985    2.96000004
   16.79277802  152.04200745    4.90999985    2.98000002
   16.79583359  164.44799805    4.90999985    2.94000006
   16.79916573  155.44999695    4.90999985    2.96000004
   16.80222130  157.32800293    4.90999985    2.96000004
   16.80861092  157.32800293    4.90999985    2.96000004
   16.81250000  154.77900696    4.90999985    2.96000004
   16.81583214  159.01800537    4.90999985    2.96000004
   16.81916809  157.90600586    4.90999985    2.96000004
   16.82222366  158.87300110    4.90999985    2.96000004
   16.82277870  160.63099670    4.90999985    2.96000004
   16.82611275  160.41400146    4.90999985    2.94000006
   16.82916832  157.35600281    4.90999985    2.96000004
   16.83250046  162.66900635    4.90999985    2.96000004
   16.83555603  155.17100525    4.90999985    2.96000004
   16.83889008  150.46800232    4.90999985    2.96000004
   16.84222221  161.22000122    4.90999985    2.96000004
   16.84527779  146.33999634    4.90999985    2.96000004
   16.85138893  146.33999634    4.90999985    2.96000004
   16.85555649  149.18200684    4.90999985    2.94000006
   16.85583305  146.49200439    4.90999985    2.96000004
   16.85916710  155.58099365    4.90999985    2.94000006
   16.86250114  156.94799805    4.90999985    2.94000006
   16.86555672  162.73800659    4.90999985    2.96000004
   16.86888885  154.79600525    4.90999985    2.94000006
   16.87222290  162.33200073    4.90999985    2.96000004
   16.87527847  159.00599670    4.90999985    2.96000004
   16.87861061  158.42100525    4.90999985    2.96000004
   16.88194466  151.24899292    4.90999985    2.96000004
   16.88500023  155.42599487    4.90999985    2.96000004
   16.88833237  156.71000671    4.90999985    2.96000004
   16.88916588  163.55900574    4.90999985    2.96000004
   16.89416695  163.55900574    4.90999985    2.96000004
   16.89833260  149.60099792    4.90999985    2.96000004
   16.90138817  155.19200134    4.90999985    2.96000004
   16.90472221  155.74800110    4.90999985    2.94000006
   16.90805435  158.36399841    4.90999985    2.94000006
   16.91138840  161.67399597    4.90999985    2.94000006
   16.91444397  151.96600342    4.90999985    2.94000006
   16.91777802  156.09100342    4.90999985    2.96000004
   16.92083359  157.07200623    4.90999985    2.96000004
   16.92249870  154.92900085    4.90999985    2.96000004
   16.92444420  157.14199829    4.90999985    2.96000004
   16.92777634  153.91200256    4.90999985    2.96000004
   16.93083191  149.35899353    4.90999985    2.94000006
   16.93694305  149.35899353    4.90999985    2.96000004
   16.94111061  147.04800415    4.90999985    2.94000006
   16.94444275  156.06399536    4.90999985    2.96000004
   16.94749832  153.71000671    4.90999985    2.96000004
   16.95083427  152.58700562    4.90999985    2.94000006
   16.95416832  154.87600708    4.90999985    2.98000002
   16.95611191  157.21000671    4.90999985    2.98000002
   16.95777893  155.12899780    4.90999985    2.96000004
   16.96111107  153.36599731    4.90999985    2.96000004
   16.96416664  158.93200684    4.90999985    2.96000004
   16.96750069  159.77099609    4.90999985    2.96000004
   16.97083473  165.10099792    4.90999985    2.94000006
   16.97389030  160.69599915    4.90999985    2.96000004
   16.97972298  160.69599915    4.90999985    2.96000004
   16.98388863  163.64100647    4.90999985    2.94000006
   16.98722267  163.07200623    4.90999985    2.96000004
   16.98944473  161.77799988    4.90999985    2.94000006
   16.99083328  164.74600220    4.90999985    2.96000004
   16.99416733  163.57099915    4.90999985    2.94000006
   16.99722290  162.52200317    4.90999985    2.96000004
   17.00055504  156.78700256    4.90999985    2.96000004
   17.00388908  154.31900024    4.90999985    2.96000004
   17.00694466  158.20399475    4.90999985    2.94000006
   17.01027870  159.80499268    4.90999985    2.96000004
   17.01361084  151.66999817    4.90999985    2.94000006
   17.01666641  156.31700134    4.90999985    2.94000006
   17.02277756  156.31700134    4.90999985    2.94000006
   17.02694511  145.34399414    4.90999985    2.96000004
   17.03000069  149.07499695    4.90999985    2.96000004
   17.03333282  141.33799744    4.90999985    2.98000002
   17.03638840  153.88600159    4.90999985    2.96000004
   17.03972244  157.33200073    4.90999985    2.94000006
   17.04305458  155.39300537    4.90999985    2.96000004
   17.04611015  152.26100159    4.90999985    2.96000004
   17.04944420  163.01699829    4.90999985    2.94000006
   17.05277634  161.28399658    4.90999985    2.96000004
   17.05583191  157.45599365    4.90999985    2.96000004
   17.05638885  157.62800598    4.90999985    2.96000004
   17.05972099  159.88999939    4.90999985    2.94000006
   17.06555557  159.88999939    4.90999985    2.94000006
   17.06972313  154.50999451    4.90999985    2.96000004
   17.07277870  158.02299500    4.90999985    2.96000004
   17.07611275  163.27600098    4.90999985    2.94000006
   17.07944489  163.15100098    4.90999985    2.96000004
   17.08250046  164.87800598    4.90999985    2.96000004
   17.08583450  159.47599792    4.90999985    2.96000004
   17.08916664  160.33999634    4.90999985    2.96000004
   17.08972359  155.33399963    4.90999985    2.96000004
   17.09277916  165.52600098    4.90999985    2.94000006
   17.09583473  152.23199463    4.90999985    2.96000004
   17.09916687  152.14199829    4.90999985    2.96000004
   17.10250092  157.80400085    4.90999985    2.96000004
   17.10833359  157.80400085    4.90999985    2.94000006
   17.11250114  149.42300415    4.90999985    2.96000004
   17.11583328  161.47999573    4.90999985    2.96000004
   17.11888885  158.38499451    4.90999985    2.96000004
   17.12222290  158.11799622    4.90999985    2.96000004
   17.12305641  153.11399841    4.90999985    2.96000004
   17.12583351  146.57600403    4.90999985    2.94000006
   17.12888908  153.66400146    4.90999985    2.93000007
   17.13222313  150.98100281    4.90999985    2.94000006
   17.13555527  156.98199463    4.90999985    2.93000007
   17.13861084  154.08399963    4.90999985    2.94000006
   17.14194489  159.11300659    4.90999985    2.96000004
   17.14527702  153.91799927    4.90999985    2.96000004
   17.15111160  153.91799927    4.90999985    2.94000006
   17.15527725  158.43699646    4.90999985    2.94000006
   17.15638924  153.92199707    4.90999985    2.96000004
   17.15916634  158.26199341    4.90999985    2.94000006
   17.16222191  154.30799866    4.90999985    2.94000006
   17.16555595  147.91099548    4.90999985    2.96000004
   17.16888809  154.08999634    4.90999985    2.94000006
   17.17194366  157.63000488    4.90999985    2.96000004
   17.17527771  150.70300293    4.90999985    2.98000002
   17.17860985  157.15800476    4.90999985    2.94000006
   17.18166542  159.51400757    4.90999985    2.94000006
   17.18499947  164.23199463    4.90999985    2.96000004
   17.18805504  167.59500122    4.90999985    2.96000004
   17.18972206  160.24400330    4.90999985    2.94000006
   17.19416618  160.24400330    4.90999985    2.96000004
   17.19833183  164.44299316    4.90999985    2.94000006
   17.20138931  170.74299622    4.90999985    2.94000006
   17.20472336  168.88600159    4.90999985    2.94000006
   17.20777893  189.75599670    4.90999985    2.98000002
   17.21111107  186.97000122    4.90999985    2.94000006
   17.21444511  184.00300598    4.90999985    2.96000004
   17.21750069  194.08999634    4.90999985    2.96000004
   17.22083473  204.52699280    4.90999985    2.96000004
   17.22305679  192.85600281    4.90999985    2.96000004
   17.22444534  206.00900269    4.90999985    2.96000004
   17.22750092  209.47399902    4.90999985    2.94000006
   17.23083305  232.70300293    4.90999985    2.94000006
   17.23694420  232.70300293    4.90999985    2.94000006
   17.24111176  274.12799072    4.90999985    2.96000004
   17.24444389  299.40499878    4.90999985    2.94000006
   17.24749947  344.03698730    4.90999985    2.94000006
   17.24944496  370.32901001    4.90999985    2.94000006
   17.25083351  363.01098633    4.90999985    2.94000006
   17.25222206  354.16900635    4.90999985    2.94000006
   17.25361061  371.61999512    4.90999985    2.94000006
   17.25499916  364.52700806    4.90999985    2.96000004
   17.25638962  337.71798706    4.90999985    2.94000006
   17.25777817  319.51098633    4.90999985    2.94000006
   17.25916672  267.35699463    4.90999985    2.94000006
   17.26055527  208.00999451    4.90999985    2.96000004
   17.26083374  232.70300293    4.90999985    2.94000006
   17.26083374  274.12799072    4.90999985    2.96000004
   17.26083374  299.40499878    4.90999985    2.94000006
   17.26111031  344.03698730    4.90999985    2.94000006
   17.26111031  184.00300598    4.90999985    2.96000004
   17.26111031  194.08999634    4.90999985    2.96000004
   17.26138878  204.52699280    4.90999985    2.96000004
   17.26138878  206.00900269    4.90999985    2.96000004
   17.26138878  209.47399902    4.90999985    2.94000006
   17.26194382  164.27999878    4.90999985    2.94000006
   17.26527786  135.33700562    4.90999985    2.96000004
   17.26861000  118.47299957    4.90999985    2.96000004
   17.27166557  137.48100281    4.90999985    2.94000006
   17.27499962  130.44500732    4.90999985    2.94000006
   17.28138924  130.44500732    4.90999985    2.96000004
   17.28555489   38.27519989    4.90999985    2.94000006
   17.28888893   -1.00000000    4.90999985    2.94000006
   17.29194450   -1.00000000    4.90999985    2.94000006
   17.29555511   -1.00000000    4.90999985    2.94000006
   17.29888916   -1.00000000    4.90999985    2.96000004
   17.30222130   -1.00000000    4.90999985    2.96000004
   17.30527687   -1.00000000    4.90999985    2.94000006
   17.30861092   -1.00000000    4.90999985    2.94000006
   17.31194305   -1.00000000    4.90999985    2.94000006
   17.31499863   -1.00000000    4.90999985    2.96000004
   17.31833458   -1.00000000    4.90999985    2.94000006
   17.34000015   -1.00000000    4.90999985    2.94000006
   17.34333420   -1.00000000    4.90999985    2.94000006
   17.34638977   -1.00000000    4.90999985    2.94000006
   17.34972191   -1.00000000    4.90999985    2.94000006
   17.35277748   -1.00000000    4.90999985    2.94000006
   17.35611153   -1.00000000    4.90999985    2.94000006
   17.35944557   -1.00000000    4.90999985    2.94000006
   17.36250114   -1.00000000    4.90999985    2.94000006
   17.37111092  176.14599609    4.90999985    2.94000006
   17.37472153   -1.00000000    4.90999985    2.94000006
   17.37833405  157.17700195    4.90999985    2.96000004
   17.38166618  154.28500366    4.90999985    2.94000006
   17.38472176  160.78100586    4.90999985    2.94000006
   17.38805580  156.36900330    4.90999985    2.94000006
   17.39138794  149.89199829    4.90999985    2.94000006
   17.39444351  158.61999512    4.90999985    2.94000006
   17.39777756  156.70500183    4.90999985    2.94000006
   17.40111160  161.56399536    4.90999985    2.94000006
   17.40416718  161.79899597    4.90999985    2.94000006
   17.40611076  152.43200684    4.90999985    2.94000006
   17.41027832  152.43200684    4.90999985    2.94000006
   17.41444397  162.11999512    4.90999985    2.94000006
   17.41777802  157.04400635    4.90999985    2.94000006
   17.42083359  158.80900574    4.90999985    3.05999994
   17.42416573  158.03199768    4.90999985    3.03999996
   17.42722130  158.64300537    4.90999985    3.05999994
   17.43055534  159.61000061    4.90999985    3.03999996
   17.43388748  164.41499329    4.90999985    3.03999996
   17.43694305  160.47999573    4.90999985    3.03999996
   17.43944359  161.49400330    4.90999985    3.03999996
   17.44083214  165.37399292    4.90999985    3.03999996
   17.44388771  172.79699707    4.90999985    3.03999996
   17.44722176  156.88400269    4.90999985    3.03999996
   17.45305634  156.88400269    4.90999985    3.05999994
   17.45722389  165.11500549    4.90999985    3.05999994
   17.46055603  160.76300049    4.90999985    3.01999998
   17.46361160  158.61900330    4.90999985    3.03999996
   17.46694565  164.31700134    4.90999985    3.03999996
   17.47027779  159.20899963    4.90999985    3.03999996
   17.47277832  165.35400391    4.90999985    3.03999996
   17.47389030  161.31900024    4.90999985    3.03999996
   17.47694588  165.34700012    4.90999985    3.03999996
   17.48027802  161.93400574    4.90999985    3.03999996
   17.48361206  158.44799805    4.90999985    3.03999996
   17.48666763  164.46800232    4.90999985    3.03999996
   17.48999977  164.01800537    4.90999985    3.03999996
   17.49583435  164.01800537    4.90999985    3.01999998
   17.50000000  166.05599976    4.90999985    3.03999996
   17.50333405  168.89599609    4.90999985    3.01999998
   17.50611115  162.00199890    4.90999985    3.03999996
   17.50694466  163.69900513    4.90999985    3.03999996
   17.51000023  159.90600586    4.90999985    3.03999996
   17.51333427  165.05299377    4.90999985    3.03999996
   17.51666641  154.84399414    4.90999985    3.03999996
   17.51972198  158.61500549    4.90999985    3.03999996
   17.52305603  167.30799866    4.90999985    3.03999996
   17.52611160  164.26100159    4.90999985    3.03999996
   17.52944374  160.94299316    4.90999985    3.03999996
   17.53277779  158.16799927    4.90999985    3.05999994
   17.53888893  158.16799927    4.90999985    3.05999994
   17.54305458  159.76199341    4.90999985    3.03999996
   17.54611015  164.47399902    4.90999985    3.03999996
   17.54944420  162.45399475    4.90999985    3.01999998
   17.55249977  165.25500488    4.90999985    3.03999996
   17.55583191  168.76199341    4.90999985    3.03999996
   17.55916595  168.45199585    4.90999985    3.05999994
   17.56222153  165.25700378    4.90999985    3.03999996
   17.56555557  167.75999451    4.90999985    3.03999996
   17.56888962  168.43899536    4.90999985    3.03999996
   17.57194519  161.85200500    4.90999985    3.01999998
   17.57389069  171.86900330    4.90999985    3.03999996
   17.57583427  168.60400391    4.90999985    3.03999996
   17.58166695  168.60400391    4.90999985    3.03999996
   17.58583450  176.90600586    4.90999985    3.03999996
   17.58916664  182.03799438    4.90999985    3.03999996
   17.59222221  167.82299805    4.90999985    3.03999996
   17.59555626  170.21200562    4.90999985    3.01999998
   17.59861183  160.89100647    4.90999985    3.01999998
   17.60194397  165.96899414    4.90999985    3.01999998
   17.60527802  162.22200012    4.90999985    3.01999998
   17.60722351  165.09300232    4.90999985    3.03999996
   17.60888863  160.32200623    4.90999985    3.05999994
   17.61194420  165.18299866    4.90999985    3.03999996
   17.61527824  168.54400635    4.90999985    3.03999996
   17.61833382  165.90499878    4.90999985    3.03999996
   17.62444496  165.90499878    4.90999985    3.03999996
   17.62861061  167.14799500    4.90999985    3.03999996
   17.63194466  162.49200439    4.90999985    3.03999996
   17.63500023  164.64599609    4.90999985    3.05999994
   17.63833237  167.39399719    4.90999985    3.03999996
   17.64083290  160.39300537    4.90999985    3.03999996
   17.64194489  171.97700500    4.90999985    3.03999996
   17.64527702  166.67500305    4.90999985    3.03999996
   17.64861107  165.56599426    4.90999985    3.05999994
   17.65166664  166.70300293    4.90999985    3.03999996
   17.65499878  162.19599915    4.90999985    3.03999996
   17.65805435  168.82299805    4.90999985    3.03999996
   17.66138840  170.71800232    4.90999985    3.03999996
   17.66722107  170.71800232    4.90999985    3.01999998
   17.67138863  168.46000671    4.90999985    3.03999996
   17.67416573  172.16700745    4.90999985    3.03999996
   17.67499924  165.05200195    4.90999985    3.03999996
   17.67833328  161.38600159    4.90999985    3.03999996
   17.68166542  160.91600037    4.90999985    3.03999996
   17.68472099  162.91400146    4.90999985    3.03999996
   17.68805504  166.27600098    4.90999985    3.03999996
   17.69111061  163.61700439    4.90999985    3.05999994
   17.69444275  163.76100159    4.90999985    3.03999996
   17.69777679  162.26699829    4.90999985    3.03999996
   17.70083427  171.51499939    4.90999985    3.05999994
   17.70416832  173.71200562    4.90999985    3.03999996
   17.71027946  173.71200562    4.90999985    3.03999996
   17.71444511  165.21499634    4.90999985    3.03999996
   17.71750069  178.36399841    4.90999985    3.03999996
   17.72083473  166.26899719    4.90999985    3.03999996
   17.72389030  163.30999756    4.90999985    3.03999996
   17.72722244  175.52600098    4.90999985    3.03999996
   17.73055649  183.09800720    4.90999985    3.03999996
   17.73388863  165.91499329    4.90999985    3.03999996
   17.73694420  177.08799744    4.90999985    3.03999996
   17.74027824  183.04699707    4.90999985    3.03999996
   17.74111176  164.53300476    4.90999985    3.03999996
   17.74388885  194.95899963    4.90999985    3.03999996
   17.74694443  180.94500732    4.90999985    3.05999994
   17.75305557  180.94500732    4.90999985    3.03999996
   17.75722313  179.84100342    4.90999985    3.01999998
   17.76027870  166.68099976    4.90999985    3.03999996
   17.76361084  193.18699646    4.90999985    3.03999996
   17.76694489  193.61599731    4.90999985    3.03999996
   17.77000046  167.84199524    4.90999985    3.05999994
   17.77333260  182.47399902    4.90999985    3.03999996
   17.77444458  208.00700378    4.90999985    3.03999996
   17.77694511  182.77999878    4.90999985    3.03999996
   17.78000069  171.53599548    4.90999985    3.03999996
   17.78333282  169.96099854    4.90999985    3.03999996
   17.78666687  162.97500610    4.90999985    3.01999998
   17.78972244  174.30499268    4.90999985    3.03999996
   17.79583359  174.30499268    4.90999985    3.01999998
   17.79999924  166.27099609    4.90999985    3.03999996
   17.80333328  168.97500610    4.90999985    3.03999996
   17.80638885  168.58599854    4.90999985    3.05999994
   17.80805397  168.38999939    4.90999985    3.03999996
   17.81027794  172.17100525    4.90999985    3.03999996
   17.81333351  167.70199585    4.90999985    3.03999996
   17.81666756  168.89999390    4.90999985    3.05999994
   17.81972313  165.86300659    4.90999985    3.03999996
   17.82305717  173.05099487    4.90999985    3.03999996
   17.82638931  170.00199890    4.90999985    3.03999996
   17.82944489  182.28700256    4.90999985    3.03999996
   17.83277893  165.55000305    4.90999985    3.03999996
   17.83861160  165.55000305    4.90999985    3.03999996
   17.84277916  173.55200195    4.90999985    3.03999996
   17.84611130  166.18400574    4.90999985    3.03999996
   17.84944534  173.03799438    4.90999985    3.03999996
   17.85250092  180.07899475    4.90999985    3.03999996
   17.85583305  174.48199463    4.90999985    3.03999996
   17.85888863  182.09100342    4.90999985    3.03999996
   17.86222267  189.00199890    4.90999985    3.03999996
   17.86555672  181.83299255    4.90999985    3.03999996
   17.86861038  179.20100403    4.90999985    3.03999996
   17.87194443  181.31500244    4.90999985    3.03999996
   17.87472153  201.50399780    4.90999985    3.01999998
   17.87555504  194.24600220    4.90999985    3.03999996
   17.88166618  194.24600220    4.90999985    3.03999996
   17.88583374  195.07899475    4.90999985    3.01999998
   17.88888931  176.34300232    4.90999985    3.01999998
   17.89222145  208.42500305    4.90999985    3.01999998
   17.89527702  184.39300537    4.90999985    3.01999998
   17.89861107  192.55400085    4.90999985    3.01999998
   17.90194321  174.64599609    4.90999985    3.01999998
   17.90499878  158.66600037    4.90999985    3.03999996
   17.90805435  167.11399841    4.90999985    3.03999996
   17.90861130  177.72300720    4.90999985    3.01999998
   17.91194344  181.57699585    4.90999985    3.03999996
   17.91527748  182.21899414    4.90999985    3.03999996
   17.91833305  180.72999573    4.90999985    3.01999998
   17.92444420  180.72999573    4.90999985    3.03999996
   17.92860985  175.80299377    4.90999985    3.03999996
   17.93166542  179.07699585    4.90999985    3.05999994
   17.93499947  182.20300293    4.90999985    3.01999998
   17.93833160  165.31399536    4.90999985    3.03999996
   17.94138718  169.32400513    4.90999985    3.01999998
   17.94166565  181.88400269    4.90999985    3.01999998
   17.94499969  169.17100525    4.90999985    3.03999996
   17.94833183  174.02099609    4.90999985    3.03999996
   17.95138931  184.61000061    4.90999985    3.03999996
   17.95472336  171.82400513    4.90999985    3.01999998
   17.95805550  173.34100342    4.90999985    3.01999998
   17.96111107  182.59700012    4.90999985    3.01999998
   17.96722221  182.59700012    4.90999985    3.01999998
   17.97138977  183.16700745    4.90999985    3.01999998
   17.97472191  175.91900635    4.90999985    3.01999998
   17.97500038  171.13699341    4.90999985    3.03999996
   17.97833443  169.83500671    4.90999985    3.01999998
   17.98166656  176.13999939    4.90999985    3.03999996
   17.98472214  177.27799988    4.90999985    3.01999998
   17.98805618  167.86199951    4.90999985    3.03999996
   17.99138832  168.85600281    4.90999985    3.03999996
   17.99444389  177.56399536    4.90999985    3.03999996
   17.99777794  170.15800476    4.90999985    3.03999996
   18.00083351  168.33799744    4.90999985    3.01999998
   18.00416756  169.69200134    4.90999985    3.01999998
   18.01000023  169.69200134    4.90999985    3.01999998
   18.01416588  164.60699463    4.90999985    3.05999994
   18.01749992  171.16799927    4.90999985    3.01999998
   18.02083397  175.53999329    4.90999985    3.01999998
   18.02388954  185.47200012    4.90999985    3.03999996
   18.02722168  178.89300537    4.90999985    3.01999998
   18.03027725  178.88299561    4.90999985    3.03999996
   18.03361130  179.88999939    4.90999985    3.03999996
   18.03694344  179.78199768    4.90999985    3.03999996
   18.03999901  176.29400635    4.90999985    3.01999998
   18.04138756  187.26499939    4.90999985    3.03999996
   18.04388809  185.31399536    4.90999985    3.03999996
   18.04694366  175.75300598    4.90999985    3.01999998
   18.05305481  175.75300598    4.90999985    3.01999998
   18.05722237  175.83799744    4.90999985    3.01999998
   18.06027794  171.17100525    4.90999985    3.01999998
   18.06361008  178.86599731    4.90999985    3.01999998
   18.06694603  167.33099365    4.90999985    3.03999996
   18.07000160  178.40499878    4.90999985    3.01999998
   18.07333374  165.12699890    4.90999985    3.03999996
   18.07472229  176.26800537    4.90999985    3.03999996
   18.07694626  170.84500122    4.90999985    3.03999996
   18.08000183  173.24200439    4.90999985    3.03999996
   18.08333397  168.70700073    4.90999985    3.01999998
   18.08638954  172.81700134    4.90999985    3.03999996
   18.08972359  182.70399475    4.90999985    3.01999998
   18.09583473  182.70399475    4.90999985    3.01999998
   18.10000038  168.66000366    4.90999985    3.03999996
   18.10305595  167.06300354    4.90999985    3.03999996
   18.10639000  176.86900330    4.90999985    3.01999998
   18.10833359  165.80900574    4.90999985    3.01999998
   18.11000061  165.15899658    4.90999985    3.03999996
   18.11333466  169.48300171    4.90999985    3.01999998
   18.11666679  171.98699951    4.90999985    3.03999996
   18.11972237  167.29200745    4.90999985    3.01999998
   18.12305641  167.52299500    4.90999985    3.03999996
   18.12611198  165.39799500    4.90999985    3.01999998
   18.12944412  170.13499451    4.90999985    3.01999998
   18.13277817  169.45799255    4.90999985    3.03999996
   18.13861084  169.45799255    4.90999985    3.01999998
   18.14277840  168.09500122    4.90999985    3.01999998
   18.14611053  163.48800659    4.90999985    3.03999996
   18.14916611  169.69400024    4.90999985    3.01999998
   18.15250015  167.85400391    4.90999985    3.03999996
   18.15583229  163.80999756    4.90999985    3.01999998
   18.15888786  167.73699951    4.90999985    3.03999996
   18.16222191  163.34500122    4.90999985    3.01999998
   18.16527748  162.96499634    4.90999985    3.01999998
   18.16860962  163.16499329    4.90999985    3.03999996
   18.17194366  171.19799805    4.90999985    3.01999998
   18.17499924  165.09199524    4.90999985    3.01999998
   18.17555428  162.79800415    4.90999985    3.01999998
   18.18138885  162.79800415    4.90999985    3.03999996
   18.18555450  165.32200623    4.90999985    3.01999998
   18.18888855  170.97500610    4.90999985    3.01999998
   18.19194412  171.34199524    4.90999985    3.01999998
   18.19527626  165.07499695    4.90999985    3.01999998
   18.19861031  155.08500671    4.90999985    3.03999996
   18.20166779  168.49800110    4.90999985    3.01999998
   18.20499992  163.67199707    4.90999985    3.03999996
   18.20833397  158.26800537    4.90999985    3.01999998
   18.20861244  169.55999756    4.90999985    3.03999996
   18.21194458  160.52099609    4.90999985    3.03999996
   18.21500015  156.63699341    4.90999985    3.03999996
   18.21833420  160.91200256    4.90999985    3.03999996
   18.22444534  160.91200256    4.90999985    3.03999996
   18.22833443  155.13299561    4.90999985    3.03999996
   18.23166656  166.01899719    4.90999985    3.01999998
   18.23500061  162.69200134    4.90999985    3.03999996
   18.23805618  154.84599304    4.90999985    3.01999998
   18.24138832  163.03399658    4.90999985    3.03999996
   18.24194527  163.45500183    4.90999985    3.03999996
   18.24527740  163.87699890    4.90999985    3.03999996
   18.24833298  165.66700745    4.90999985    3.03999996
   18.25166702  163.74099731    4.90999985    3.01999998
   18.25472260  169.58900452    4.90999985    3.03999996
   18.25805473  173.02400208    4.90999985    3.03999996
   18.26138878  171.73599243    4.90999985    3.03999996
   18.26722145  171.73599243    4.90999985    3.01999998
   18.27138901  173.80900574    4.90999985    3.01999998
   18.27444458  168.52499390    4.90999985    3.01999998
   18.27527809  167.84100342    4.90999985    3.03999996
   18.27833366  169.07000732    4.90999985    3.03999996
   18.28138924  159.70399475    4.90999985    3.01999998
   18.28472137  166.92999268    4.90999985    3.03999996
   18.28777695  170.18800354    4.90999985    3.03999996
   18.29111099  164.25999451    4.90999985    3.03999996
   18.29444313  167.13900757    4.90999985    3.03999996
   18.29749870  167.68699646    4.90999985    3.01999998
   18.30083275  167.18499756    4.90999985    3.01999998
   18.30416679  163.53199768    4.90999985    3.03999996
   18.30999947  163.53199768    4.90999985    3.01999998
   18.31416512  167.08000183    4.90999985    3.03999996
   18.31750107  169.85899353    4.90999985    3.03999996
   18.32055664  162.57299805    4.90999985    3.01999998
   18.32389069  160.73800659    4.90999985    3.01999998
   18.32694626  159.43800354    4.90999985    3.03999996
   18.33027840  161.49299622    4.90999985    3.03999996
   18.33361244  159.66299438    4.90999985    3.03999996
   18.33666801  167.19900513    4.90999985    3.03999996
   18.34000015  164.37699890    4.90999985    3.01999998
   18.35694504  176.52000427    4.90999985    3.01999998
   18.36111069  176.52000427    4.90999985    3.03999996
   18.36527824  153.94900513    4.90999985    3.01999998
   18.36861038  162.05400085    4.90999985    3.03999996
   18.37166595  168.01699829    4.90999985    3.01999998
   18.37500000  162.85099792    4.90999985    3.03999996
   18.37833405  166.15899658    4.90999985    3.03999996
   18.38138962  166.30999756    4.90999985    3.03999996
   18.38472176  165.38200378    4.90999985    3.03999996
   18.38777733  167.07600403    4.90999985    3.03999996
   18.39027786  169.49099731    4.90999985    3.01999998
   18.39138794  167.27000427    4.90999985    3.03999996
   18.39472198  169.68800354    4.90999985    3.03999996
   18.39805603  161.46099854    4.90999985    3.01999998
   18.40388870  161.46099854    4.90999985    3.03999996
   18.40805435  169.78900146    4.90999985    3.03999996
   18.41138840  167.43800354    4.90999985    3.01999998
   18.41444397  170.64900208    4.90999985    3.01999998
   18.41777802  172.04800415    4.90999985    3.01999998
   18.42111015  166.44200134    4.90999985    3.01999998
   18.42361069  168.29899597    4.90999985    3.01999998
   18.42444420  168.00199890    4.90999985    3.01999998
   18.42777634  169.49099731    4.90999985    3.01999998
   18.43111038  170.06199646    4.90999985    3.01999998
   18.43416595  165.61900330    4.90999985    3.03999996
   18.43750000  170.99899292    4.90999985    3.01999998
   18.44083214  172.28199768    4.90999985    3.01999998
   18.44694328  172.28199768    4.90999985    3.01999998
   18.45083427  171.87199402    4.90999985    3.03999996
   18.45416832  174.51400757    4.90999985    3.01999998
   18.45694542  174.51600647    4.90999985    3.01999998
   18.45777893  171.60899353    4.90999985    3.00000000
   18.46111107  169.50000000    4.90999985    3.01999998
   18.46444511  173.76400757    4.90999985    3.01999998
   18.46750069  176.10699463    4.90999985    3.03999996
   18.47083473  169.90899658    4.90999985    3.01999998
   18.47416687  170.46099854    4.90999985    3.01999998
   18.47722244  174.87500000    4.90999985    3.00000000
   18.48055649  168.86399841    4.90999985    3.05999994
   18.48388863  178.28599548    4.90999985    3.03999996
   18.48972321  178.28599548    4.90999985    3.03999996
   18.49388885  167.23699951    4.90999985    3.01999998
   18.49694443  168.69200134    4.90999985    3.01999998
   18.50027847  161.34800720    4.90999985    3.01999998
   18.50361061  167.02900696    4.90999985    3.01999998
   18.50666618  162.00500488    4.90999985    3.01999998
   18.51000023  167.78799438    4.90999985    3.01999998
   18.51305580  172.06399536    4.90999985    3.01999998
   18.51638794  170.60400391    4.90999985    3.01999998
   18.51972198  166.68800354    4.90999985    3.01999998
   18.52277756  167.05599976    4.90999985    3.01999998
   18.52472115  168.62399292    4.90999985    3.01999998
   18.52666664  166.71099854    4.90999985    3.01999998
   18.53249931  166.71099854    4.90999985    3.03999996
   18.53666687  168.56900024    4.90999985    3.01999998
   18.53972244  164.61799622    4.90999985    3.01999998
   18.54305458  165.66799927    4.90999985    3.01999998
   18.54638863  167.23899841    4.90999985    3.03999996
   18.54944420  172.25000000    4.90999985    3.01999998
   18.55277634  165.42999268    4.90999985    3.01999998
   18.55611038  170.57800293    4.90999985    3.03999996
   18.55805397  163.40499878    4.90999985    3.01999998
   18.55972099  165.32499695    4.90999985    3.01999998
   18.56277657  164.69599915    4.90999985    3.01999998
   18.56611061  154.61199951    4.90999985    3.01999998
   18.56916809  157.78599548    4.90999985    3.01999998
   18.57527924  157.78599548    4.90999985    3.01999998
   18.57944489  158.34800720    4.90999985    3.01999998
   18.58277893  162.45700073    4.90999985    3.01999998
   18.58583450  157.91799927    4.90999985    3.01999998
   18.58916664  160.52499390    4.90999985    3.01999998
   18.59166718  166.17900085    4.90999985    3.01999998
   18.59277916  165.28900146    4.90999985    3.01999998
   18.59611130  159.24000549    4.90999985    3.01999998
   18.59944534  167.97500610    4.90999985    3.01999998
   18.60250092  161.32800293    4.90999985    3.01999998
   18.60583305  164.51600647    4.90999985    3.01999998
   18.60916710  163.25799561    4.90999985    3.01999998
   18.61222267  163.58500671    4.90999985    3.01999998
   18.61833382  163.58500671    4.90999985    3.00000000
   18.62222290  168.26699829    4.90999985    3.01999998
   18.62500000  165.07099915    4.90999985    3.01999998
   18.62583351  167.35200500    4.90999985    3.01999998
   18.62916756  164.44599915    4.90999985    3.01999998
   18.63249969  162.58500671    4.90999985    3.01999998
   18.63555527  163.52200317    4.90999985    3.01999998
   18.63888931  169.35000610    4.90999985    3.01999998
   18.64194489  167.52000427    4.90999985    3.01999998
   18.64527702  162.43800354    4.90999985    3.01999998
   18.64861107  163.57899475    4.90999985    3.01999998
   18.65166664  161.05700684    4.90999985    3.00000000
   18.65499878  170.64199829    4.90999985    3.01999998
   18.66110992  170.64199829    4.90999985    2.98000002
   18.66527748  172.47700500    4.90999985    3.01999998
   18.66833305  163.72099304    4.90999985    3.01999998
   18.67166519  166.97999573    4.90999985    3.01999998
   18.67472076  169.30000305    4.90999985    3.00000000
   18.67805481  166.40400696    4.90999985    3.01999998
   18.68138885  181.46899414    4.90999985    3.01999998
   18.68472099  189.05099487    4.90999985    3.01999998
   18.68777657  190.27999878    4.90999985    3.01999998
   18.69111061  192.48199463    4.90999985    3.01999998
   18.69194412  182.06100464    4.90999985    3.01999998
   18.69472122  187.95899963    4.90999985    3.01999998
   18.69777679  198.53500366    4.90999985    3.00000000
   18.70388985  198.53500366    4.90999985    3.01999998
   18.70805550  182.60600281    4.90999985    3.01999998
   18.71111107  193.34899902    4.90999985    3.01999998
   18.71444511  184.94599915    4.90999985    3.01999998
   18.71777916  205.39500427    4.90999985    3.00000000
   18.72083473  191.04699707    4.90999985    3.01999998
   18.72416687  177.27699280    4.90999985    3.00000000
   18.72527885  183.66700745    4.90999985    3.01999998
   18.72777748  173.19900513    4.90999985    3.01999998
   18.73083305  187.44999695    4.90999985    3.00000000
   18.73416710  190.19900513    4.90999985    3.00000000
   18.73722267  190.45300293    4.90999985    3.00000000
   18.74055672  169.02099609    4.90999985    3.00000000
   18.74666786  169.02099609    4.90999985    3.00000000
   18.75083351  188.29800415    4.90999985    3.00000000
   18.75416756  195.71800232    4.90999985    3.00000000
   18.75722313  199.01400757    4.90999985    3.01999998
   18.75888824  200.33700562    4.90999985    3.01999998
   18.76111031  184.47099304    4.90999985    3.00000000
   18.76416588  190.87500000    4.90999985    3.00000000
   18.76749992  188.60299683    4.90999985    3.00000000
   18.77055550  177.52699280    4.90999985    3.00000000
   18.77388954  183.83900452    4.90999985    3.00000000
   18.77722168  183.54400635    4.90999985    3.00000000
   18.78027725  171.60400391    4.90999985    3.01999998
   18.78361130  180.38999939    4.90999985    3.00000000
   18.78972244  180.38999939    4.90999985    3.00000000
   18.79361153  180.73800659    4.90999985    3.00000000
   18.79694366  172.73300171    4.90999985    3.01999998
   18.80027771  181.89399719    4.90999985    3.01999998
   18.80333328  180.57699585    4.90999985    3.00000000
   18.80666542  175.04600525    4.90999985    3.00000000
   18.80999947  178.65100098    4.90999985    3.00000000
   18.81305504  180.44400024    4.90999985    3.00000000
   18.81638718  180.82000732    4.90999985    3.00000000
   18.81944466  186.82200623    4.90999985    3.01999998
   18.82277870  166.46699524    4.90999985    3.00000000
   18.82555580  167.73899841    4.90999985    3.00000000
   18.82638931  160.29699707    4.90999985    3.00000000
   18.83250046  160.29699707    4.90999985    3.00000000
   18.83666801  168.18299866    4.90999985    3.00000000
   18.83972359  174.52099609    4.90999985    3.01999998
   18.84305573  176.22799683    4.90999985    3.01999998
   18.84611130  172.72000122    4.90999985    3.00000000
   18.84944534  170.88400269    4.90999985    3.00000000
   18.85277748  178.90400696    4.90999985    3.00000000
   18.85583305  188.27699280    4.90999985    3.00000000
   18.85888863  165.79699707    4.90999985    3.00000000
   18.85944557  173.42799377    4.90999985    3.00000000
   18.86277771  182.22999573    4.90999985    3.00000000
   18.86611176  177.07499695    4.90999985    3.01999998
   18.86916733  179.63800049    4.90999985    3.01999998
   18.87527847  179.63800049    4.90999985    3.01999998
   18.87944412  179.60000610    4.90999985    3.00000000
   18.88249969  172.61199951    4.90999985    3.00000000
   18.88583374  174.51600647    4.90999985    3.00000000
   18.88916588  170.46499634    4.90999985    3.00000000
   18.89222145  168.60200500    4.90999985    3.00000000
   18.89249992  173.15199280    4.90999985    3.00000000
   18.89583397  175.26100159    4.90999985    3.00000000
   18.89916611  177.29200745    4.90999985    3.00000000
   18.90222168  173.55499268    4.90999985    3.00000000
   18.90555573  173.28599548    4.90999985    3.00000000
   18.90888786  180.35000610    4.90999985    3.01999998
   18.91194344  172.94200134    4.90999985    3.00000000
   18.91805458  172.94200134    4.90999985    3.00000000
   18.92222214  177.13299561    4.90999985    3.00000000
   18.92555428  170.75900269    4.90999985    3.00000000
   18.92583275  172.21899414    4.90999985    3.00000000
   18.92916679  175.40699768    4.90999985    3.01999998
   18.93249893  170.78300476    4.90999985    3.00000000
   18.93555450  175.21400452    4.90999985    3.00000000
   18.93888855  173.72599792    4.90999985    3.00000000
   18.94222069  164.98800659    4.90999985    3.00000000
   18.94527626  173.88299561    4.90999985    3.00000000
   18.94861031  166.19500732    4.90999985    3.00000000
   18.95166779  168.72900391    4.90999985    3.00000000
   18.95499992  163.50900269    4.90999985    3.00000000
   18.96111107  163.50900269    4.90999985    3.00000000
   18.96500015  170.66700745    4.90999985    3.00000000
   18.96833420  177.28300476    4.90999985    3.00000000
   18.97166634  182.21000671    4.90999985    3.00000000
   18.97472191  161.20899963    4.90999985    3.00000000
   18.97805595  162.77600098    4.90999985    3.01999998
   18.98111153  166.65400696    4.90999985    3.00000000
   18.98444557  164.85600281    4.90999985    3.00000000
   18.98777771  155.48800659    4.90999985    3.00000000
   18.99083328  181.46499634    4.90999985    3.00000000
   18.99222183  180.14399719    4.90999985    3.00000000
   18.99472237  175.02099609    4.90999985    3.00000000
   18.99777794  171.02699280    4.90999985    3.00000000
   19.00388908  171.02699280    4.90999985    3.00000000
   19.00805473  174.14700317    4.90999985    3.01999998
   19.01111031  169.69099426    4.90999985    3.00000000
   19.01444435  171.97900391    4.90999985    3.00000000
   19.01777840  169.91700745    4.90999985    3.00000000
   19.02083397  172.98399353    4.90999985    3.00000000
   19.02416611  184.08200073    4.90999985    3.00000000
   19.02555466  167.41099548    4.90999985    3.01999998
   19.02777672  172.79899597    4.90999985    3.00000000
   19.03083229  167.28399658    4.90999985    3.00000000
   19.03416634  166.85899353    4.90999985    3.00000000
   19.03722191  165.04200745    4.90999985    3.01999998
   19.04055595  158.08700562    4.90999985    3.00000000
   19.04666710  158.08700562    4.90999985    3.01999998
   19.05083275  167.58399963    4.90999985    3.00000000
   19.05388832  155.39999390    4.90999985    3.00000000
   19.05722237  155.82800293    4.90999985    3.00000000
   19.05916595  155.56599426    4.90999985    3.00000000
   19.06083298  156.67999268    4.90999985    3.00000000
   19.06416512  154.78199768    4.90999985    3.00000000
   19.06750107  155.58399963    4.90999985    3.00000000
   19.07055664  155.33399963    4.90999985    3.00000000
   19.07389069  160.08299255    4.90999985    3.00000000
   19.07694626  158.08099365    4.90999985    3.00000000
   19.08027840  164.87899780    4.90999985    3.00000000
   19.08361244  168.43499756    4.90999985    3.00000000
   19.08944511  168.43499756    4.90999985    3.00000000
   19.09361267  168.66999817    4.90999985    3.00000000
   19.09694481  160.25100708    4.90999985    2.98000002
   19.10000038  170.78900146    4.90999985    3.00000000
   19.10333443  168.56799316    4.90999985    3.00000000
   19.10666656  164.70899963    4.90999985    3.00000000
   19.10972214  161.11300659    4.90999985    3.00000000
   19.11305618  158.42799377    4.90999985    3.00000000
   19.11611176  167.50999451    4.90999985    3.00000000
   19.11944389  171.34100342    4.90999985    2.98000002
   19.12277794  162.77099609    4.90999985    3.00000000
   19.12583351  161.88099670    4.90999985    3.00000000
   19.12611198  158.80000305    4.90999985    3.00000000
   19.13222313  158.80000305    4.90999985    2.98000002
   19.13638878  156.16000366    4.90999985    2.98000002
   19.13972282  159.31300354    4.90999985    3.00000000
   19.14305496  160.53700256    4.90999985    3.00000000
   19.14611053  159.87899780    4.90999985    3.00000000
   19.14944458  162.61999512    4.90999985    2.98000002
   19.15250015  168.39199829    4.90999985    3.00000000
   19.15583229  158.98199463    4.90999985    3.00000000
   19.15916634  165.22599792    4.90999985    3.00000000
   19.15944481  168.49499512    4.90999985    3.00000000
   19.16277695  167.88299561    4.90999985    2.98000002
   19.16611099  164.89100647    4.90999985    2.98000002
   19.16916656  157.17799377    4.90999985    2.98000002
   19.17527771  157.17799377    4.90999985    3.00000000
   19.17944336  163.95899963    4.90999985    3.00000000
   19.18249893  162.26100159    4.90999985    3.00000000
   19.18583298  147.73399353    4.90999985    3.00000000
   19.18888855  162.37199402    4.90999985    2.98000002
   19.19222069  158.37600708    4.90999985    3.00000000
   19.19277763  153.22700500    4.90999985    3.00000000
   19.19610977  159.86199951    4.90999985    2.98000002
   19.19916534  163.44099426    4.90999985    2.98000002
   19.20250130  155.80299377    4.90999985    3.00000000
   19.20583344  164.28399658    4.90999985    2.96000004
   19.20888901  171.90600586    4.90999985    3.00000000
   19.21222305  158.95700073    4.90999985    2.98000002
   19.21805573  158.95700073    4.90999985    2.98000002
   19.22222328  156.52699280    4.90999985    3.00000000
   19.22527885  155.65499878    4.90999985    2.98000002
   19.22611237  161.53199768    4.90999985    3.00000000
   19.22916794  155.29299927    4.90999985    3.00000000
   19.23222351  161.62100220    4.90999985    3.00000000
   19.23555565  159.33399963    4.90999985    3.00000000
   19.23888969  153.47500610    4.90999985    2.98000002
   19.24194527  161.50999451    4.90999985    3.00000000
   19.24527740  156.56300354    4.90999985    3.00000000
   19.24833298  156.21800232    4.90999985    2.98000002
   19.25166702  156.37800598    4.90999985    2.98000002
   19.25499916  156.99200439    4.90999985    2.96000004
   19.26083374  156.99200439    4.90999985    2.98000002
   19.26499939  158.36199951    4.90999985    3.01999998
   19.26833344  158.03100586    4.90999985    2.98000002
   19.27138901  151.18299866    4.90999985    2.96000004
   19.27472115  159.90100098    4.90999985    2.98000002
   19.27805519  150.55299377    4.90999985    2.98000002
   19.28111076  158.36500549    4.90999985    2.98000002
   19.28444481  153.09500122    4.90999985    2.98000002
   19.28750038  152.82899475    4.90999985    2.98000002
   19.29083252  151.88800049    4.90999985    2.98000002
   19.29277802  155.59500122    4.90999985    2.98000002
   19.29472160  148.00199890    4.90999985    2.98000002
   19.29777718  153.69599915    4.90999985    2.98000002
   19.30360985  153.69599915    4.90999985    2.98000002
   19.30777740  162.57699585    4.90999985    2.98000002
   19.31110954  152.84300232    4.90999985    2.98000002
   19.31444359  152.88000488    4.90999985    2.98000002
   19.31750107  157.21400452    4.90999985    2.98000002
   19.32083511  155.92999268    4.90999985    2.98000002
   19.32389069  153.62500000    4.90999985    2.98000002
   19.32611275  156.08599854    4.90999985    3.00000000
   19.32777786  154.68099976    4.90999985    2.98000002
   19.33083344  149.70199585    4.90999985    2.98000002
   19.33416748  146.77999878    4.90999985    3.00000000
   19.33750153  155.31799316    4.90999985    2.98000002
   19.34055710  158.82000732    4.90999985    2.98000002
   19.34666824  158.82000732    4.90999985    3.00000000
   19.35083389  156.44000244    4.90999985    2.98000002
   19.35388947  158.85000610    4.90999985    2.98000002
   19.35722351  157.12600708    4.90999985    2.98000002
   19.37416649  160.25100708    4.90999985    2.98000002
   19.37722206  161.55200195    4.90999985    2.98000002
   19.38055611  161.03900146    4.90999985    2.98000002
   19.38361168  166.96499634    4.90999985    2.98000002
   19.38972282  166.96499634    4.90999985    2.96000004
   19.39388847  162.48899841    4.90999985    2.98000002
   19.39694405  161.44799805    4.90999985    2.98000002
   19.40027809  160.54299927    4.90999985    2.98000002
   19.40333366  160.78100586    4.90999985    2.98000002
   19.40666580  159.65699768    4.90999985    3.00000000
   19.40749931  156.45899963    4.90999985    2.96000004
   19.41027832  156.68099976    4.90999985    2.98000002
   19.41333389  158.38699341    4.90999985    2.96000004
   19.41666603  160.98899841    4.90999985    2.96000004
   19.42000008  153.60800171    4.90999985    2.96000004
   19.42305565  155.93600464    4.90999985    2.96000004
   19.42638779  156.21800232    4.90999985    2.98000002
   19.43249893  156.21800232    4.90999985    3.00000000
   19.43666649  149.71699524    4.90999985    2.96000004
   19.43972206  149.79800415    4.90999985    2.96000004
   19.44083214  151.74299622    4.90999985    2.98000002
   19.44361115  158.76499939    4.90999985    2.98000002
   19.44666672  149.97300720    4.90999985    2.98000002
   19.45000076  154.74899292    4.90999985    2.96000004
   19.45333481  158.98399353    4.90999985    2.98000002
   19.45639038  157.22200012    4.90999985    2.98000002
   19.45972252  158.08000183    4.90999985    2.98000002
   19.46305656  158.38000488    4.90999985    2.96000004
   19.46611214  157.07899475    4.90999985    2.96000004
   19.46944427  158.00199890    4.90999985    2.98000002
   19.47527885  158.00199890    4.90999985    3.00000000
   19.47944450  154.90600586    4.90999985    2.98000002
   19.48277855  152.32000732    4.90999985    2.98000002
   19.48583412  155.12899780    4.90999985    2.98000002
   19.48916626  155.29699707    4.90999985    2.98000002
   19.49250031  153.69799805    4.90999985    2.96000004
   19.49555588  149.21400452    4.90999985    2.98000002
   19.49888992  145.87300110    4.90999985    2.96000004
   19.50194359  154.09399414    4.90999985    2.98000002
   19.50527763  147.75900269    4.90999985    2.98000002
   19.50749969  147.95199585    4.90999985    2.96000004
   19.50888824  145.74600220    4.90999985    2.96000004
   19.51194382  150.07299805    4.90999985    2.96000004
   19.51833344  150.07299805    4.90999985    2.96000004
   19.52222252  152.44999695    4.90999985    2.96000004
   19.52555466  151.45899963    4.90999985    2.96000004
   19.52888870  154.38499451    4.90999985    2.98000002
   19.53194427  152.79100037    4.90999985    2.96000004
   19.53527641  152.92799377    4.90999985    2.98000002
   19.53861046  154.05700684    4.90999985    2.96000004
   19.54083252  150.54899597    4.90999985    2.98000002
   19.54222107  153.45799255    4.90999985    2.98000002
   19.54527664  152.08200073    4.90999985    2.98000002
   19.54861069  156.97000122    4.90999985    2.96000004
   19.55194283  150.97500610    4.90999985    2.96000004
   19.55499840  146.86700439    4.90999985    2.98000002
   19.56110954  146.86700439    4.90999985    2.96000004
   19.56527710  143.88200378    4.90999985    2.96000004
   19.56833458  149.59500122    4.90999985    2.96000004
   19.57166672  147.17500305    4.90999985    2.96000004
   19.57416725  151.60400391    4.90999985    2.98000002
   19.57527924  147.26899719    4.90999985    2.96000004
   19.57833481  145.72300720    4.90999985    2.96000004
   19.58166695  147.98500061    4.90999985    2.96000004
   19.58500099  146.61500549    4.90999985    2.96000004
   19.58805656  149.79899597    4.90999985    2.96000004
   19.59138870  146.07000732    4.90999985    2.96000004
   19.59444427  139.21099854    4.90999985    2.96000004
   19.59777832  149.01100159    4.90999985    2.96000004
   19.60388947  149.01100159    4.90999985    2.96000004
   19.60805511  153.55799866    4.90999985    2.98000002
   19.61111069  148.97000122    4.90999985    2.96000004
   19.61444473  154.04699707    4.90999985    2.96000004
   19.61777878  148.86099243    4.90999985    2.94000006
   19.62083435  146.69400024    4.90999985    2.96000004
   19.62416649  149.34800720    4.90999985    2.94000006
   19.62750053  146.32899475    4.90999985    2.96000004
   19.63055611  146.90199280    4.90999985    2.96000004
   19.63388824  144.77900696    4.90999985    2.96000004
   19.63694382  148.80200195    4.90999985    2.96000004
   19.64027786  144.55499268    4.90999985    2.96000004
   19.64083290  149.38400269    4.90999985    2.96000004
   19.64666748  149.38400269    4.90999985    2.94000006
   19.65083313  145.21600342    4.90999985    2.96000004
   19.65416718  147.49200439    4.90999985    2.94000006
   19.65722275  143.20399475    4.90999985    2.96000004
   19.66055489  147.32200623    4.90999985    2.96000004
   19.66388893  146.99200439    4.90999985    2.96000004
   19.66694450  150.38800049    4.90999985    2.96000004
   19.67027664  148.98399353    4.90999985    2.96000004
   19.67333221  143.79400635    4.90999985    2.96000004
   19.67416573  144.22500610    4.90999985    2.96000004
   19.67722130  144.94900513    4.90999985    2.96000004
   19.68027687  143.65899658    4.90999985    2.96000004
   19.68361092  148.78399658    4.90999985    2.94000006
   19.68944359  148.78399658    4.90999985    2.94000006
   19.69361115  142.55599976    4.90999985    2.96000004
   19.69694328  144.28900146    4.90999985    2.96000004
   19.70027924  145.49499512    4.90999985    2.94000006
   19.70333481  145.00199890    4.90999985    2.96000004
   19.70666695  146.66000366    4.90999985    2.94000006
   19.70750046  140.99299622    4.90999985    2.94000006
   19.71027946  142.70300293    4.90999985    2.96000004
   19.71333504  143.93400574    4.90999985    2.96000004
   19.71666718  148.94999695    4.90999985    2.96000004
   19.72000122  143.39300537    4.90999985    2.96000004
   19.72305679  147.52900696    4.90999985    2.96000004
   19.72638893  136.98199463    4.90999985    2.94000006
   19.73250008  136.98199463    4.90999985    2.96000004
   19.73666763  139.76199341    4.90999985    2.94000006
   19.73972321  140.17100525    4.90999985    2.96000004
   19.74083328  137.00700378    4.90999985    2.94000006
   19.74333382  139.08500671    4.90999985    2.94000006
   19.74638939  141.32000732    4.90999985    2.94000006
   19.74972153  144.05299377    4.90999985    2.94000006
   19.75305557  139.03799438    4.90999985    2.94000006
   19.75611115  142.96600342    4.90999985    2.94000006
   19.75944519  137.08099365    4.90999985    2.94000006
   19.76277733  139.52099609    4.90999985    2.94000006
   19.76583290  144.80900574    4.90999985    2.96000004
   19.76916695  140.77799988    4.90999985    2.94000006
   19.77527809  140.77799988    4.90999985    2.94000006
   19.77944374  146.77200317    4.90999985    2.94000006
   19.78249931  147.76800537    4.90999985    2.94000006
   19.78583336  140.58299255    4.90999985    2.94000006
   19.78916550  145.36000061    4.90999985    2.94000006
   19.79222107  150.60699463    4.90999985    2.96000004
   19.79555511  137.33099365    4.90999985    2.96000004
   19.79888916  140.84300232    4.90999985    2.94000006
   19.80194283  146.87600708    4.90999985    2.94000006
   19.80527687  143.00500488    4.90999985    2.93000007
   19.80749893  144.91600037    4.90999985    2.93000007
   19.80888748  141.05799866    4.90999985    2.94000006
   19.81194305  144.84899902    4.90999985    2.94000006
   19.81805611  144.84899902    4.90999985    2.94000006
   19.82222366  138.25999451    4.90999985    2.94000006
   19.82555580  143.80400085    4.90999985    2.94000006
   19.82861137  139.26100159    4.90999985    2.94000006
   19.83194542  135.02799988    4.90999985    2.94000006
   19.83527756  143.86700439    4.90999985    2.94000006
   19.83833313  132.86099243    4.90999985    2.94000006
   19.84083366  139.27000427    4.90999985    2.94000006
   19.84194565  139.61900330    4.90999985    2.94000006
   19.84500122  137.89199829    4.90999985    2.94000006
   19.84833336  138.20700073    4.90999985    2.94000006
   19.85166740  136.31599426    4.90999985    2.94000006
   19.85472298  136.87300110    4.90999985    2.94000006
   19.86111069  136.87300110    4.90999985    2.94000006
   19.86499977  144.29200745    4.90999985    2.96000004
   19.86833382  134.86900330    4.90999985    2.94000006
   19.87166595  141.44799805    4.90999985    2.94000006
   19.87416649  139.06399536    4.90999985    2.94000006
   19.87527847  145.88600159    4.90999985    2.94000006
   19.87861061  136.26899719    4.90999985    2.94000006
   19.88166618  138.82400513    4.90999985    2.94000006
   19.88500023  137.91700745    4.90999985    2.93000007
   19.88805580  129.61399841    4.90999985    2.94000006
   19.89138794  137.68600464    4.90999985    2.94000006
   19.89472198  138.40299988    4.90999985    2.94000006
   19.89777756  136.01600647    4.90999985    2.94000006
   19.90388870  136.01600647    4.90999985    2.94000006
   19.90805435  134.48199463    4.90999985    2.94000006
   19.91110992  137.97700500    4.90999985    2.93000007
   19.91444397  134.81300354    4.90999985    2.94000006
   19.91777802  135.45300293    4.90999985    2.94000006
   19.92083359  139.90699768    4.90999985    2.94000006
   19.92416573  137.56199646    4.90999985    2.94000006
   19.92722130  135.61000061    4.90999985    2.94000006
   19.93055534  137.95899963    4.90999985    2.94000006
   19.93388748  142.16600037    4.90999985    2.93000007
   19.93694305  140.10200500    4.90999985    2.94000006
   19.94027710  135.26899719    4.90999985    2.93000007
   19.94083214  133.56599426    4.90999985    2.94000006
   19.94666672  133.56599426    4.90999985    2.94000006
   19.95083427  144.26899719    4.90999985    2.94000006
   19.95416832  136.54699707    4.90999985    2.94000006
   19.95722389  137.92300415    4.90999985    2.93000007
   19.96055603  133.03999329    4.90999985    2.94000006
   19.96389008  135.41900635    4.90999985    2.94000006
   19.96694565  130.33200073    4.90999985    2.94000006
   19.97027779  131.32899475    4.90999985    2.94000006
   19.97361183  133.47200012    4.90999985    2.93000007
   19.97416687  131.35800171    4.90999985    2.94000006
   19.97722244  139.12899780    4.90999985    2.93000007
   19.98055649  132.28500366    4.90999985    2.94000006
   19.98361206  132.29200745    4.90999985    2.93000007
   19.98944473  132.29200745    4.90999985    2.94000006
   19.99361229  130.69000244    4.90999985    2.93000007
   19.99694443  136.20399475    4.90999985    2.94000006
   20.00000000  134.05999756    4.90999985    2.94000006
   20.00333405  132.77400208    4.90999985    2.93000007
   20.00666618  129.33200073    4.90999985    2.93000007
   20.00749969  134.16700745    4.90999985    2.94000006
   20.01027870  138.19900513    4.90999985    2.94000006
   20.01361084  133.25300598    4.90999985    2.93000007
   20.01666641  136.26600647    4.90999985    2.93000007
   20.02000046  132.28500366    4.90999985    2.93000007
   20.02305603  135.64300537    4.90999985    2.93000007
   20.02666664  136.14700317    4.90999985    2.93000007
   20.03249931  136.14700317    4.90999985    2.93000007
   20.03638840  134.14900208    4.90999985    2.93000007
   20.03972244  135.35899353    4.90999985    2.93000007
   20.04083252  131.69599915    4.90999985    2.94000006
   20.04333305  128.37600708    4.90999985    2.93000007
   20.04666710  132.24000549    4.90999985    2.91000009
   20.04972076  130.97799683    4.90999985    2.93000007
   20.05305481  132.31399536    4.90999985    2.94000006
   20.05611038  125.87899780    4.90999985    2.93000007
   20.05944443  130.12399292    4.90999985    2.91000009
   20.06277657  131.22599792    4.90999985    2.93000007
   20.06583214  126.71399689    4.90999985    2.93000007
   20.06916809  131.75000000    4.90999985    2.94000006
   20.07527924  131.75000000    4.90999985    2.93000007
   20.07944489  124.49500275    4.90999985    2.93000007
   20.08250046  126.25299835    4.90999985    2.93000007
   20.08583450  126.74600220    4.90999985    2.93000007
   20.08889008  126.10800171    4.90999985    2.93000007
   20.09222221  130.80400085    4.90999985    2.93000007
   20.09555626  128.18200684    4.90999985    2.93000007
   20.09861183  130.46099854    4.90999985    2.93000007
   20.10194397  128.26400757    4.90999985    2.93000007
   20.10527802  130.52600098    4.90999985    2.93000007
   20.10750008  129.42700195    4.90999985    2.93000007
   20.10888863  122.40000153    4.90999985    2.93000007
   20.11222267  130.19500732    4.90999985    2.94000006
   20.11805534  130.19500732    4.90999985    2.93000007
   20.12222290  128.73699951    4.90999985    2.91000009
   20.12527847  122.45899963    4.90999985    2.91000009
   20.12861061  123.88500214    4.90999985    2.91000009
   20.13194466  127.31900024    4.90999985    2.93000007
   20.13500023  129.17700195    4.90999985    2.93000007
   20.13833237  125.77999878    4.90999985    2.91000009
   20.14083290  123.41100311    4.90999985    2.91000009
   20.14194489  122.80000305    4.90999985    2.91000009
   20.14527702  125.00900269    4.90999985    2.91000009
   20.14833260  123.82900238    4.90999985    2.93000007
   20.15166664  130.69599915    4.90999985    2.93000007
   20.15499878  125.99900055    4.90999985    2.93000007
   20.16083336  125.99900055    4.90999985    2.91000009
   20.16499901  130.16499329    4.90999985    2.91000009
   20.16833305  120.03099823    4.90999985    2.91000009
   20.17138863  120.39900208    4.90999985    2.93000007
   20.17416573  130.05799866    4.90999985    2.93000007
   20.17499924  125.42199707    4.90999985    2.91000009
   20.17833328  129.19200134    4.90999985    2.93000007
   20.18138885  126.04100037    4.90999985    2.93000007
   20.18472099  129.27600098    4.90999985    2.91000009
   20.18805504  123.65399933    4.90999985    2.91000009
   20.19111061  131.86300659    4.90999985    2.91000009
   20.19444275  128.56599426    4.90999985    2.91000009
   20.19749832  127.37000275    4.90999985    2.91000009
   20.20361137  127.37000275    4.90999985    2.91000009
   20.20777893  133.87500000    4.90999985    2.91000009
   20.21111107  136.54800415    4.90999985    2.91000009
   20.21444511  130.27900696    4.90999985    2.93000007
   20.21750069  134.46099854    4.90999985    2.91000009
   20.22083473  135.55200195    4.90999985    2.91000009
   20.22389030  131.91000366    4.90999985    2.91000009
   20.22722244  139.88299561    4.90999985    2.91000009
   20.23055649  135.21200562    4.90999985    2.91000009
   20.23361206  132.75599670    4.90999985    2.91000009
   20.23694420  138.13699341    4.90999985    2.91000009
   20.24055672  132.79299927    4.90999985    2.91000009
   20.24111176  127.22000122    4.90999985    2.91000009
   20.24666786  127.22000122    4.90999985    2.91000009
   20.25083351  139.11500549    4.90999985    2.91000009
   20.25388908  136.12199402    4.90999985    2.91000009
   20.25722313  135.20500183    4.90999985    2.91000009
   20.26027870  138.01300049    4.90999985    2.91000009
   20.26361084  135.88699341    4.90999985    2.89000010
   20.26694489  129.09300232    4.90999985    2.91000009
   20.27000046  132.50000000    4.90999985    2.89000010
   20.27333260  133.36399841    4.90999985    2.91000009
   20.27444458  136.45500183    4.90999985    2.89000010
   20.27694511  137.51300049    4.90999985    2.91000009
   20.28027725  138.44599915    4.90999985    2.91000009
   20.28361130  136.19299316    4.90999985    2.93000007
   20.28944397  136.19299316    4.90999985    2.91000009
   20.29361153  136.31399536    4.90999985    2.91000009
   20.29694366  140.44799805    4.90999985    2.89000010
   20.29999924  135.23500061    4.90999985    2.89000010
   20.30333328  136.02099609    4.90999985    2.89000010
   20.30638885  138.56500244    4.90999985    2.89000010
   20.30777740  140.79200745    4.90999985    2.89000010
   20.30999947  139.73100281    4.90999985    2.89000010
   20.31333351  141.64599609    4.90999985    2.89000010
   20.31666756  134.88299561    4.90999985    2.89000010
   20.31972313  138.84700012    4.90999985    2.86999989
   20.32305717  140.05299377    4.90999985    2.89000010
   20.32611275  137.04499817    4.90999985    2.89000010
   20.33222389  137.04499817    4.90999985    2.89000010
   20.33638954  139.06100464    4.90999985    2.89000010
   20.33972359  139.38900757    4.90999985    2.89000010
   20.34111214  139.65899658    4.90999985    2.89000010
   20.34305573  138.86000061    4.90999985    2.89000010
   20.34638977  137.69700623    4.90999985    2.89000010
   20.34972191  136.27699280    4.90999985    2.89000010
   20.35277748  142.96600342    4.90999985    2.91000009
   20.35611153  145.05799866    4.90999985    2.89000010
   20.35916710  141.44500732    4.90999985    2.89000010
   20.36250114  148.47900391    4.90999985    2.89000010
   20.36583328  146.61799622    4.90999985    2.86999989
   20.36888885  136.74899292    4.90999985    2.89000010
   20.39138794  137.52900696    4.90999985    2.86999989
   20.39194489  143.00199890    4.90999985    2.86999989
   20.39500046  140.56799316    4.90999985    2.89000010
   20.39833260  141.99000549    4.90999985    2.89000010
   20.40166664  136.50700378    4.90999985    2.89000010
   20.40472221  135.04100037    4.90999985    2.86999989
   20.40777779  139.09700012    4.90999985    2.86999989
   20.40833282  137.46299744    4.90999985    2.89000010
   20.41166687  139.53599548    4.90999985    2.86999989
   20.41805458  139.53599548    4.90999985    2.86999989
   20.42222214  139.32699585    4.90999985    2.86999989
   20.42527771  139.50500488    4.90999985    2.86999989
   20.42860985  143.19500732    4.90999985    2.86999989
   20.43194389  144.79299927    4.90999985    2.86999989
   20.43499947  139.13800049    4.90999985    2.86999989
   20.43833160  141.01199341    4.90999985    2.86999989
   20.44111061  143.88200378    4.90999985    2.86999989
   20.44194412  141.84899902    4.90999985    2.86999989
   20.44527626  142.83200073    4.90999985    2.84999990
   20.44861031  142.84100342    4.90999985    2.86999989
   20.45166779  147.28999329    4.90999985    2.86999989
   20.45499992  145.13000488    4.90999985    2.84999990
   20.46083450  145.13000488    4.90999985    2.86999989
   20.46500015  143.10200500    4.90999985    2.86999989
   20.46833420  148.71600342    4.90999985    2.84999990
   20.47138977  138.87800598    4.90999985    2.84999990
   20.47444534  148.34100342    4.90999985    2.84999990
   20.47500038  141.91299438    4.90999985    2.84999990
   20.47833443  136.98100281    4.90999985    2.84999990
   20.48166656  136.36599731    4.90999985    2.82999992
   20.48472214  138.14999390    4.90999985    2.84999990
   20.48805618  138.44599915    4.90999985    2.84999990
   20.49138832  147.87800598    4.90999985    2.84999990
   20.49444389  140.98699951    4.90999985    2.84999990
   20.49777794  139.03100586    4.90999985    2.84999990
   20.50361061  139.03100586    4.90999985    2.84999990
   20.50777817  144.82299805    4.90999985    2.84999990
   20.51111031  144.08099365    4.90999985    2.84999990
   20.51416588  154.47300720    4.90999985    2.84999990
   20.51749992  147.97300720    4.90999985    2.82999992
   20.52083397  144.42399597    4.90999985    2.84999990
   20.52388954  148.02200317    4.90999985    2.84999990
   20.52722168  151.21299744    4.90999985    2.84999990
   20.53055573  149.22000122    4.90999985    2.84999990
   20.53361130  146.91799927    4.90999985    2.84999990
   20.53694344  148.67900085    4.90999985    2.84999990
   20.53999901  145.32600403    4.90999985    2.82999992
   20.54111099  142.98599243    4.90999985    2.84999990
   20.54666710  142.98599243    4.90999985    2.82999992
   20.55055428  147.32200623    4.90999985    2.84999990
   20.55388832  147.41400146    4.90999985    2.82999992
   20.55722237  147.10800171    4.90999985    2.82999992
   20.56055450  151.13600159    4.90999985    2.82999992
   20.56361008  147.26899719    4.90999985    2.82999992
   20.56694603  145.12800598    4.90999985    2.82999992
   20.57000160  147.08299255    4.90999985    2.82999992
   20.57333374  148.81799316    4.90999985    2.82999992
   20.57444572  144.80900574    4.90999985    2.82999992
   20.57694626  146.43899536    4.90999985    2.82999992
   20.58027840  150.74899292    4.90999985    2.82999992
   20.58361244  156.93400574    4.90999985    2.82999992
   20.58944511  156.93400574    4.90999985    2.82999992
   20.59361267  150.37800598    4.90999985    2.82999992
   20.59666824  148.98599243    4.90999985    2.82999992
   20.60000038  146.28599548    4.90999985    2.82999992
   20.60333443  150.63299561    4.90999985    2.82999992
   20.60639000  144.88200378    4.90999985    2.82999992
   20.60777855  152.11199951    4.90999985    2.82999992
   20.61027908  150.66900635    4.90999985    2.82999992
   20.61333466  147.43899536    4.90999985    2.82999992
   20.61666679  153.72900391    4.90999985    2.82999992
   20.61972237  146.68400574    4.90999985    2.82999992
   20.62305641  148.54899597    4.90999985    2.82999992
   20.62638855  147.19400024    4.90999985    2.82999992
   20.63222313  147.19400024    4.90999985    2.82999992
   20.63638878  146.87800598    4.90999985    2.82999992
   20.63972282  145.74000549    4.90999985    2.82999992
   20.64111137  143.47500610    4.90999985    2.82999992
   20.64333344  147.93299866    4.90999985    2.82999992
   20.64638901  147.51699829    4.90999985    2.82999992
   20.64972115  149.48699951    4.90999985    2.82999992
   20.65277672  153.92900085    4.90999985    2.82999992
   20.65611076  148.72200012    4.90999985    2.80999994
   20.65944481  149.90199280    4.90999985    2.82999992
   20.66250038  141.31799316    4.90999985    2.80999994
   20.66583252  145.73800659    4.90999985    2.80999994
   20.66916656  145.46699524    4.90999985    2.80999994
   20.67499924  145.46699524    4.90999985    2.82999992
   20.67916679  146.01199341    4.90999985    2.82999992
   20.68249893  149.74899292    4.90999985    2.82999992
   20.68555450  144.67199707    4.90999985    2.82999992
   20.68888855  147.06799316    4.90999985    2.80999994
   20.69222069  142.31500244    4.90999985    2.82999992
   20.69527626  143.11399841    4.90999985    2.82999992
   20.69861031  150.13299561    4.90999985    2.82999992
   20.70194435  147.70399475    4.90999985    2.82999992
   20.70499992  145.33500671    4.90999985    2.82999992
   20.70777893  152.00500488    4.90999985    2.82999992
   20.70888901  151.70100403    4.90999985    2.82999992
   20.71194458  152.15400696    4.90999985    2.80999994
   20.71805573  152.15400696    4.90999985    2.80999994
   20.72194481  151.13099670    4.90999985    2.80999994
   20.72527885  146.66299438    4.90999985    2.80999994
   20.72861099  150.35499573    4.90999985    2.80999994
   20.73166656  154.26100159    4.90999985    2.80999994
   20.73500061  156.97000122    4.90999985    2.80999994
   20.73833275  151.21499634    4.90999985    2.80999994
   20.74111176  145.59700012    4.90999985    2.78999996
   20.74194527  149.28100586    4.90999985    2.78999996
   20.74500084  152.90299988    4.90999985    2.80999994
   20.74833298  150.37600708    4.90999985    2.80999994
   20.75138855  153.18099976    4.90999985    2.80999994
   20.75472260  150.48599243    4.90999985    2.80999994
   20.76083374  150.48599243    4.90999985    2.78999996
   20.76499939  158.20500183    4.90999985    2.78999996
   20.76805496  152.24000549    4.90999985    2.78999996
   20.77138901  150.89900208    4.90999985    2.78999996
   20.77444458  146.05999756    4.90999985    2.78999996
   20.77499962  153.13099670    4.90999985    2.78999996
   20.77805519  157.82400513    4.90999985    2.78999996
   20.78138924  150.81399536    4.90999985    2.76999998
   20.78444481  148.25999451    4.90999985    2.78999996
   20.78777695  157.52299500    4.90999985    2.78999996
   20.79111099  153.95199585    4.90999985    2.78999996
   20.79416656  152.63200378    4.90999985    2.78999996
   20.79749870  154.28900146    4.90999985    2.78999996
   20.80360985  154.28900146    4.90999985    2.76999998
   20.80777740  157.33399963    4.90999985    2.78999996
   20.81110954  153.77900696    4.90999985    2.78999996
   20.81416512  153.98100281    4.90999985    2.76999998
   20.81750107  158.93499756    4.90999985    2.78999996
   20.82083511  165.17100525    4.90999985    2.78999996
   20.82389069  163.40800476    4.90999985    2.76999998
   20.82722282  167.87100220    4.90999985    2.76999998
   20.83027840  174.52200317    4.90999985    2.78999996
   20.83361244  166.33500671    4.90999985    2.76999998
   20.83694458  171.27499390    4.90999985    2.76999998
   20.84000015  174.32899475    4.90999985    2.78999996
   20.84111214  161.91200256    4.90999985    2.76999998
   20.84638977  161.91200256    4.90999985    2.78999996
   20.85055542  168.88900757    4.90999985    2.76999998
   20.85388947  166.52600098    4.90999985    2.76999998
   20.85694504  172.37399292    4.90999985    2.78999996
   20.86027908  164.64900208    4.90999985    2.78999996
   20.86361122  167.47900391    4.90999985    2.76999998
   20.86666679  168.22200012    4.90999985    2.76999998
   20.87000084  175.42999268    4.90999985    2.76999998
   20.87333298  182.86500549    4.90999985    2.75000000
   20.87444496  168.25799561    4.90999985    2.76999998
   20.87694550  177.16700745    4.90999985    2.76999998
   20.88000107  175.46299744    4.90999985    2.76999998
   20.88333321  174.73699951    4.90999985    2.76999998
   20.88944435  174.73699951    4.90999985    2.76999998
   20.89333344  170.10000610    4.90999985    2.76999998
   20.89666748  164.67300415    4.90999985    2.75000000
   20.89999962  167.67500305    4.90999985    2.76999998
   20.90305519  166.59500122    4.90999985    2.75000000
   20.90638924  168.88600159    4.90999985    2.76999998
   20.90777779  179.43200684    4.90999985    2.76999998
   20.90999985  175.32899475    4.90999985    2.76999998
   20.91305542  173.18400574    4.90999985    2.75000000
   20.91638756  169.49200439    4.90999985    2.75000000
   20.91972160  167.28199768    4.90999985    2.75000000
   20.92277718  168.64999390    4.90999985    2.75000000
   20.92611122  168.37300110    4.90999985    2.75000000
   20.93222237  168.37300110    4.90999985    2.75000000
   20.93638802  153.86799622    4.90999985    2.75000000
   20.93944359  160.89999390    4.90999985    2.73000002
   20.94111061  161.15100098    4.90999985    2.75000000
   20.94333267  166.58999634    4.90999985    2.75000000
   20.94638824  163.02799988    4.90999985    2.73000002
   20.94972038  166.59899902    4.90999985    2.73000002
   20.95305634  162.86300659    4.90999985    2.73000002
   20.95611191  168.91600037    4.90999985    2.75000000
   20.95944595  175.10200500    4.90999985    2.73000002
   20.96250153  166.01600647    4.90999985    2.75000000
   20.96583366  173.18400574    4.90999985    2.73000002
   20.96916771  159.37100220    4.90999985    2.73000002
   20.97500038  159.37100220    4.90999985    2.73000002
   20.97916794  171.09100342    4.90999985    2.71000004
   20.98250008  162.18600464    4.90999985    2.73000002
   20.98555565  169.59100342    4.90999985    2.73000002
   20.98888969  165.16099548    4.90999985    2.73000002
   20.99194527  167.98899841    4.90999985    2.73000002
   20.99527740  174.39999390    4.90999985    2.73000002
   20.99861145  175.08200073    4.90999985    2.71000004
   21.00166702  172.12399292    4.90999985    2.73000002
   21.00499916  173.35899353    4.90999985    2.73000002
   21.00777817  167.79800415    4.90999985    2.71000004
   21.00861168  163.01300049    4.90999985    2.73000002
   21.01166725  171.48699951    4.90999985    2.73000002
   21.01777840  171.48699951    4.90999985    2.73000002
   21.02194405  176.92799377    4.90999985    2.71000004
   21.02527809  172.21200562    4.90999985    2.71000004
   21.02861023  168.94099426    4.90999985    2.73000002
   21.03166580  171.85899353    4.90999985    2.71000004
   21.03499985  161.70300293    4.90999985    2.73000002
   21.03805542  168.82600403    4.90999985    2.71000004
   21.04111099  177.14700317    4.90999985    2.71000004
   21.04194450  171.96600342    4.90999985    2.71000004
   21.04500008  176.83500671    4.90999985    2.71000004
   21.04833221  183.47900391    4.90999985    2.71000004
   21.05166626  186.60899353    4.90999985    2.71000004
   21.05472183  190.75300598    4.90999985    2.71000004
   21.06083298  190.75300598    4.90999985    2.71000004
   21.06499863  168.92799377    4.90999985    2.71000004
   21.06805611  170.18200684    4.90999985    2.71000004
   21.07139015  171.97500610    4.90999985    2.71000004
   21.07444572  159.34399414    4.90999985    2.71000004
   21.07500076  166.52600098    4.90999985    2.71000004
   21.07805634  164.76699829    4.90999985    2.71000004
   21.08139038  167.55400085    4.90999985    2.71000004
   21.08472252  164.98800659    4.90999985    2.71000004
   21.08777809  171.76499939    4.90999985    2.69000006
   21.09111214  172.02400208    4.90999985    2.69000006
   21.09416771  167.41200256    4.90999985    2.69000006
   21.09749985  165.15499878    4.90999985    2.69000006
   21.10361099  165.15499878    4.90999985    2.69000006
   21.10777855  173.28900146    4.90999985    2.69000006
   21.10833359  170.71899414    4.90999985    2.69000006
   21.11138916  168.13600159    4.90999985    2.69000006
   21.11472321  176.34100342    4.90999985    2.69000006
   21.11805534  181.86300659    4.90999985    2.69000006
   21.12111092  173.21299744    4.90999985    2.69000006
   21.12444496  163.70700073    4.90999985    2.69000006
   21.12750053  184.01499939    4.90999985    2.69000006
   21.13083267  168.94099426    4.90999985    2.69000006
   21.13416672  164.49200439    4.90999985    2.67000008
   21.13722229  180.51800537    4.90999985    2.67000008
   21.14055634  172.25700378    4.90999985    2.69000006
   21.14111137  171.58599854    4.90999985    2.69000006
   21.14638901  171.58599854    4.90999985    2.69000006
   21.15055466  186.18899536    4.90999985    2.69000006
   21.15388870  170.51199341    4.90999985    2.69000006
   21.15694427  169.89500427    4.90999985    2.69000006
   21.16027832  167.19500732    4.90999985    2.69000006
   21.16361046  180.23599243    4.90999985    2.67000008
   21.16666603  173.36399841    4.90999985    2.67000008
   21.17000008  163.80599976    4.90999985    2.67000008
   21.17333221  164.88600159    4.90999985    2.69000006
   21.17444420  165.96400452    4.90999985    2.67000008
   21.17694473  157.86900330    4.90999985    2.69000006
   21.18000031  163.86000061    4.90999985    2.67000008
   21.18333244  168.03399658    4.90999985    2.67000008
   21.18916512  168.03399658    4.90999985    2.67000008
   21.19333267  167.61999512    4.90999985    2.67000008
   21.19666672  166.52600098    4.90999985    2.66000009
   21.20000076  168.63999939    4.90999985    2.67000008
   21.20305634  167.32600403    4.90999985    2.67000008
   21.20639038  168.91600037    4.90999985    2.67000008
   21.20777893  166.40800476    4.90999985    2.67000008
   21.21000099  170.05200195    4.90999985    2.67000008
   21.21305656  171.23800659    4.90999985    2.67000008
   21.21638870  179.88600159    4.90999985    2.67000008
   21.21972275  179.43699646    4.90999985    2.67000008
   21.22277832  177.25900269    4.90999985    2.67000008
   21.22611237  169.21000671    4.90999985    2.67000008
   21.23222351  169.21000671    4.90999985    2.66000009
   21.23638916  180.88400269    4.90999985    2.67000008
   21.23944473  164.80599976    4.90999985    2.67000008
   21.24111176  174.08700562    4.90999985    2.67000008
   21.24333382  165.02000427    4.90999985    2.67000008
   21.24638939  161.09100342    4.90999985    2.67000008
   21.24972153  167.37699890    4.90999985    2.67000008
   21.25305557  162.17700195    4.90999985    2.67000008
   21.25611115  165.27200317    4.90999985    2.67000008
   21.25944519  170.58000183    4.90999985    2.67000008
   21.26277733  170.75199890    4.90999985    2.67000008
   21.26583290  169.00399780    4.90999985    2.66000009
   21.26916695  163.77600098    4.90999985    2.66000009
   21.27499962  163.77600098    4.90999985    2.67000008
   21.27916718  165.80900574    4.90999985    2.67000008
   21.28222275  169.03700256    4.90999985    2.67000008
   21.28555489  160.29299927    4.90999985    2.67000008
   21.28888893  166.70199585    4.90999985    2.67000008
   21.29194450  169.64999390    4.90999985    2.67000008
   21.29527664  168.39500427    4.90999985    2.67000008
   21.29861069  177.80299377    4.90999985    2.66000009
   21.30166626  170.96800232    4.90999985    2.66000009
   21.30499840  172.09700012    4.90999985    2.66000009
   21.30777740  163.05499268    4.90999985    2.66000009
   21.30861092  167.88600159    4.90999985    2.66000009
   21.31166649  175.70500183    4.90999985    2.66000009
   21.31777954  175.70500183    4.90999985    2.66000009
   21.32194519  178.70599365    4.90999985    2.64000010
   21.32527924  166.38699341    4.90999985    2.64000010
   21.32833481  164.23100281    4.90999985    2.64000010
   21.33166695  168.72999573    4.90999985    2.64000010
   21.33472252  175.77799988    4.90999985    2.64000010
   21.33805656  166.36599731    4.90999985    2.64000010
   21.34111214  164.25300598    4.90999985    2.64000010
   21.34166718  169.97500610    4.90999985    2.64000010
   21.34472275  159.04800415    4.90999985    2.64000010
   21.34805679  165.79600525    4.90999985    2.64000010
   21.35138893  169.46000671    4.90999985    2.64000010
   21.35444450  165.85600281    4.90999985    2.64000010
   21.36055565  165.85600281    4.90999985    2.64000010
   21.36472321  171.50599670    4.90999985    2.64000010
   21.36805534  164.41999817    4.90999985    2.61999989
   21.37111092  178.50500488    4.90999985    2.61999989
   21.37444496  165.33799744    4.90999985    2.61999989
   21.37500000  163.03399658    4.90999985    2.61999989
   21.37805557  164.88999939    4.90999985    2.61999989
   21.38138962  170.67700195    4.90999985    2.61999989
   21.38472176  167.43099976    4.90999985    2.61999989
   21.38777733  173.73300171    4.90999985    2.61999989
   21.39111137  170.27000427    4.90999985    2.61999989
   21.41222191  170.27000427    4.90999985    2.61999989
   21.41638756  166.18800354    4.90999985    2.61999989
   21.41944313  169.06900024    4.90999985    2.59999990
   21.42277718  167.81399536    4.90999985    2.61999989
   21.42583275  170.16900635    4.90999985    2.59999990
   21.42916679  176.06900024    4.90999985    2.61999989
   21.43249893  183.27699280    4.90999985    2.61999989
   21.43555450  174.85000610    4.90999985    2.59999990
   21.43888855  176.76800537    4.90999985    2.59999990
   21.44222069  171.40199280    4.90999985    2.59999990
   21.44305420  173.96499634    4.90999985    2.59999990
   21.44555473  181.47999573    4.90999985    2.59999990
   21.44888878  182.57299805    4.90999985    2.59999990
   21.45499992  182.57299805    4.90999985    2.59999990
   21.45888901  178.67500305    4.90999985    2.59999990
   21.46222305  170.32000732    4.90999985    2.59999990
   21.46555710  177.82600403    4.90999985    2.59999990
   21.46861076  173.53500366    4.90999985    2.59999990
   21.47194481  179.09700012    4.90999985    2.59999990
   21.47527885  175.04100037    4.90999985    2.59999990
   21.47638893  176.92100525    4.90999985    2.59999990
   21.47861099  181.80299377    4.90999985    2.59999990
   21.48194504  175.71099854    4.90999985    2.59999990
   21.48527718  177.36900330    4.90999985    2.59999990
   21.48833275  181.42599487    4.90999985    2.59999990
   21.49166679  169.22300720    4.90999985    2.57999992
   21.49777794  169.22300720    4.90999985    2.57999992
   21.50194359  180.60400391    4.90999985    2.57999992
   21.50499916  180.46800232    4.90999985    2.57999992
   21.50833321  181.79200745    4.90999985    2.57999992
   21.50972176  182.11399841    4.90999985    2.57999992
   21.51194382  184.43200684    4.90999985    2.59999990
   21.51527786  180.56399536    4.90999985    2.57999992
   21.51833344  182.18099976    4.90999985    2.57999992
   21.52166557  191.16799927    4.90999985    2.57999992
   21.52499962  193.44200134    4.90999985    2.55999994
   21.52805519  175.98800659    4.90999985    2.55999994
   21.53138924  189.97300720    4.90999985    2.55999994
   21.53444481  179.73699951    4.90999985    2.57999992
   21.54055595  179.73699951    4.90999985    2.57999992
   21.54472160  177.10800171    4.90999985    2.55999994
   21.54805565  191.94299316    4.90999985    2.55999994
   21.55111122  184.34399414    4.90999985    2.55999994
   21.55444336  188.58999634    4.90999985    2.55999994
   21.55749893  189.66000366    4.90999985    2.55999994
   21.56083298  191.11399841    4.90999985    2.55999994
   21.56416512  199.67799377    4.90999985    2.55999994
   21.56722260  206.85499573    4.90999985    2.55999994
   21.57055664  192.69999695    4.90999985    2.53999996
   21.57389069  198.53900146    4.90999985    2.53999996
   21.57638931  183.00100708    4.90999985    2.55999994
   21.57750130  208.97900391    4.90999985    2.53999996
   21.58333397  208.97900391    4.90999985    2.53999996
   21.58750153  185.47000122    4.90999985    2.53999996
   21.59083366  200.29299927    4.90999985    2.53999996
   21.59388924  185.28100586    4.90999985    2.51999998
   21.59722328  184.05799866    4.90999985    2.51999998
   21.60055542  194.06700134    4.90999985    2.51999998
   21.60361099  212.15800476    4.90999985    2.51999998
   21.60694504  205.62199402    4.90999985    2.50000000
   21.60972214  193.87100220    4.90999985    2.50000000
   21.61055565  199.14799500    4.90999985    2.48000002
   21.61388969  184.67700195    4.90999985    2.48000002
   21.61694527  186.67100525    4.90999985    2.48000002
   21.62027740  195.80299377    4.90999985    2.46000004
   21.62638855  195.80299377    4.90999985    2.42000008
   21.63027763  198.80599976    4.90999985    2.42000008
   21.63361168  211.17999268    4.90999985    2.40000010
   21.63694382  193.76300049    4.90999985    2.39000010
   21.63999939  183.37399292    4.90999985    2.39000010
   21.64305496  200.89999390    4.90999985    2.40000010
   21.64361191  202.45799255    4.90999985    2.39000010
   21.64694405  186.07099915    4.90999985    2.39000010
   21.64999962  194.91600037    4.90999985    2.39000010
   21.65333366  198.52999878    4.90999985    2.39000010
   21.65666580  185.87899780    4.90999985    2.39000010
   21.65972137  194.35699463    4.90999985    2.39000010
   21.66305542  192.55599976    4.90999985    2.39000010
   21.66916656  192.55599976    4.90999985    2.39000010
   21.67333221  357.18600464    4.90999985    2.39000010
   21.67527771  403.79400635    4.90999985    2.39000010
   21.67666626  406.39999390    4.90999985    2.39000010
   21.67805481  264.13699341    4.90999985    2.39000010
   21.67944336  139.60099792    4.90999985    2.39000010
   21.67944336  198.52999878    4.90999985    2.39000010
   21.67944336  185.87899780    4.90999985    2.39000010
   21.67972183  194.35699463    4.90999985    2.39000010
   21.67972183  192.55599976    4.90999985    2.39000010
   21.67972183  357.18600464    4.90999985    2.39000010
   21.68000031  183.37399292    4.90999985    2.39000010
   21.68000031  202.45799255    4.90999985    2.39000010
   21.68000031  186.07099915    4.90999985    2.39000010
   21.68027687  194.91600037    4.90999985    2.39000010
   21.68083191   93.55950165    4.90999985    2.51999998
   21.68388748   79.92530060    4.90999985    2.51999998
   21.68722153   -1.00000000    4.90999985    2.50000000
   21.69055557   -1.00000000    4.90999985    2.50000000
   21.69361115   -1.00000000    4.90999985    2.50000000
   21.70416832   -1.00000000    4.90999985    2.50000000
   21.70750046   -1.00000000    4.90999985    2.48000002
   21.71055603   -1.00000000    4.90999985    2.50000000
   21.71416664   -1.00000000    4.90999985    2.48000002
   21.71750069   -1.00000000    4.90999985    2.50000000
   21.72055626   -1.00000000    4.90999985    2.48000002
   21.72389030   -1.00000000    4.90999985    2.48000002
   21.72694588   -1.00000000    4.90999985    2.48000002
   21.73027802   -1.00000000    4.90999985    2.48000002
   21.73361206   -1.00000000    4.90999985    2.48000002
   21.73666763   -1.00000000    4.90999985    2.48000002
   21.74694443   -1.00000000    4.90999985    2.48000002
   21.75027847   -1.00000000    4.90999985    2.48000002
   21.75361061   -1.00000000    4.90999985    2.48000002
   21.75666618   -1.00000000    4.90999985    2.48000002
   21.76000023   -1.00000000    4.90999985    2.48000002
   21.76305580   -1.00000000    4.90999985    2.46000004
   21.76638794   -1.00000000    4.90999985    2.46000004
   21.76972198   -1.00000000    4.90999985    2.46000004
   21.77277756   -1.00000000    4.90999985    2.46000004
   21.77611160   -1.00000000    4.90999985    2.46000004
   21.77944374   -1.00000000    4.90999985    2.46000004
   21.78999901   -1.00000000    4.90999985    2.46000004
   21.79305458   -1.00000000    4.90999985    2.44000006
   21.79638863   -1.00000000    4.90999985    2.46000004
   21.79944420   -1.00000000    4.90999985    2.44000006
   21.80277634   -1.00000000    4.90999985    2.46000004
   21.80611038   -1.00000000    4.90999985    2.44000006
   21.80916595   -1.00000000    4.90999985    2.44000006
   21.81250000   -1.00000000    4.90999985    2.44000006
   21.81611061   -1.00000000    4.90999985    2.44000006
   21.81916809   -1.00000000    4.90999985    2.46000004
   21.82250023   -1.00000000    4.90999985    2.44000006
   21.83277893   -1.00000000    4.90999985    2.42000008
   21.83583450   -1.00000000    4.90999985    2.42000008
   21.83916664   -1.00000000    4.90999985    2.42000008
   21.84250069   -1.00000000    4.90999985    2.42000008
   21.84555626   -1.00000000    4.90999985    2.42000008
   21.84916687   -1.00000000    4.90999985    2.42000008
   21.85222244   -1.00000000    4.90999985    2.42000008
   21.85555649   -1.00000000    4.90999985    2.42000008
   21.85888863   -1.00000000    4.90999985    2.42000008
   21.86194420   -1.00000000    4.90999985    2.42000008
   21.86527824   -1.00000000    4.90999985    2.42000008
   21.87555504   -1.00000000    4.90999985    2.42000008
