    HOUR (UT)   FLARE FACTOR    SKY TESTER    SUN TESTER
   11.33444405   -1.00000000   -1.00000000   -1.00000000
   11.36166668  123.14499664    4.90999985    2.03999996
   11.36472225  128.03100586    4.90999985    2.03999996
   11.36805534  117.40699768    4.90999985    2.03999996
   11.37111092  122.83499908    4.90999985    2.03999996
   11.37444496  113.17600250    4.90999985    2.03999996
   11.37777805  114.36499786    4.90999985    2.05999994
   11.38194466  114.36499786    4.90999985    2.05999994
   11.38583279  109.87000275    4.90999985    2.05999994
   11.38916683  114.28600311    4.90999985    2.05999994
   11.39277744  119.61299896    4.90999985    2.05999994
   11.39472198  118.76399994    4.90999985    2.05999994
   11.39638901  119.25099945    4.90999985    2.05999994
   11.39972210  126.34899902    4.90999985    2.05999994
   11.40277767  126.89199829    4.90999985    2.05999994
   11.40611076  115.49900055    4.90999985    2.05999994
   11.40916634  113.59100342    4.90999985    2.05999994
   11.41249943  120.04100037    4.90999985    2.07999992
   11.41666698  120.04100037    4.90999985    2.07999992
   11.42083359  121.74800110    4.90999985    2.07999992
   11.42388916  123.40599823    4.90999985    2.07999992
   11.42722225  119.56600189    4.90999985    2.07999992
   11.42805576  126.92500305    4.90999985    2.07999992
   11.43083382  114.20500183    4.90999985    2.07999992
   11.43416691  120.07099915    4.90999985    2.07999992
   11.43722248  111.30699921    4.90999985    2.07999992
   11.44055557  106.86900330    4.90999985    2.07999992
   11.44388866  128.68099976    4.90999985    2.07999992
   11.44694424  110.16600037    4.90999985    2.07999992
   11.45111084  110.16600037    4.90999985    2.07999992
   11.45527744  114.40000153    4.90999985    2.07999992
   11.45861053  129.63099670    4.90999985    2.07999992
   11.46138859  111.54699707    4.90999985    2.07999992
   11.46222210  122.07299805    4.90999985    2.07999992
   11.46555519  117.83499908    4.90999985    2.07999992
   11.46861076  120.47200012    4.90999985    2.07999992
   11.47194386  109.56300354    4.90999985    2.07999992
   11.47527695  109.97699738    4.90999985    2.07999992
   11.47833252  110.39700317    4.90999985    2.07999992
   11.48166656  109.21600342    4.90999985    2.07999992
   11.48583317  109.21600342    4.90999985    2.07999992
   11.49000072  101.67700195    4.90999985    2.07999992
   11.49333382  107.79199982    4.90999985    2.07999992
   11.49472237  109.69699860    4.90999985    2.07999992
   11.49694443  106.25900269    4.90999985    2.07999992
   11.50027752  113.77100372    4.90999985    2.07999992
   11.50333309  110.66000366    4.90999985    2.07999992
   11.50666714  110.66200256    4.90999985    2.07999992
   11.51000023  118.87100220    4.90999985    2.07999992
   11.51305580  130.09300232    4.90999985    2.07999992
   11.51638889  118.96199799    4.90999985    2.07999992
   11.52055550  118.96199799    4.90999985    2.07999992
   11.52472210  118.81500244    4.90999985    2.07999992
   11.52777767  105.87500000    4.90999985    2.07999992
   11.52833271  110.67800140    4.90999985    2.07999992
   11.53166676  113.04199982    4.90999985    2.07999992
   11.53472233  118.57299805    4.90999985    2.07999992
   11.53805637  119.36199951    4.90999985    2.07999992
   11.54138947  118.05799866    4.90999985    2.07999992
   11.54444504  118.93399811    4.90999985    2.07999992
   11.54777813  106.65599823    4.90999985    2.07999992
   11.55083370  111.05000305    4.90999985    2.15000010
   11.55500031  111.05000305    3.48000002    2.17000008
   11.55916691  122.11000061    3.48000002    2.17000008
   11.56166649  107.99299622    3.46000004    2.17000008
   11.56305599  108.22799683    3.46000004    2.17000008
   11.56611156  125.72100067    3.45000005    2.17000008
   11.56944466  114.67299652    3.43000007    2.19000006
   11.57277775  110.64299774    3.45000005    2.17000008
   11.57583332  120.68800354    3.45000005    2.17000008
   11.57916641  124.46700287    3.46000004    2.19000006
   11.58222198  128.71899414    3.46000004    2.19000006
   11.58555508  104.54599762    3.45000005    2.19000006
   11.58972168  104.54599762    3.46000004    2.19000006
   11.59388828  110.64299774    3.45000005    2.19000006
   11.59499931  108.24199677    3.45000005    2.21000004
   11.59749985  107.34600067    3.45000005    2.19000006
   11.60055637  111.09100342    3.43000007    2.21000004
   11.60388947  110.87599945    3.43000007    2.21000004
   11.60722256  111.55500031    3.43000007    2.21000004
   11.61027813  117.23999786    3.43000007    2.21000004
   11.61361122  117.76100159    3.43000007    2.21000004
   11.61694431  120.56999969    3.43000007    2.21000004
   11.61999989  118.60399628    3.43000007    2.21000004
   11.62416649  118.60399628    3.43000007    2.21000004
   11.62833309  111.37000275    3.43000007    2.21000004
   11.63166714  109.32700348    3.43000007    2.21000004
   11.63472176  112.04100037    3.43000007    2.21000004
   11.63805580  124.14900208    3.43000007    2.21000004
   11.64138889  106.22599792    3.43000007    2.21000004
   11.64444447  106.34799957    3.43000007    2.21000004
   11.64777756  109.54499817    3.43000007    2.21000004
   11.65083313  115.13300323    3.43000007    2.21000004
   11.65416622  123.00599670    3.43000007    2.21000004
   11.65861034  123.00599670    3.43000007    2.21000004
   11.66277695  110.37100220    3.43000007    2.21000004
   11.66611099  108.46800232    3.43000007    2.21000004
   11.66944504  110.95800018    3.45000005    2.21000004
   11.67250061  100.15499878    3.45000005    2.21000004
   11.67583370   99.17590332    3.45000005    2.21000004
   11.67888927   97.91570282    3.45000005    2.21000004
   11.68222237  106.34300232    3.34999990    2.23000002
   11.68555546  101.52500153    3.34999990    2.23000002
   11.68861103  107.13099670    3.34999990    2.23000002
   11.69333363  107.13099670    3.34999990    2.23000002
   11.69722271  104.01499939    3.34999990    2.23000002
   11.70055580  110.98899841    3.34999990    2.23000002
   11.70388889  110.64600372    3.34999990    2.23000002
   11.70694447  108.81900024    3.34999990    2.23000002
   11.71027756  102.70400238    3.34999990    2.23000002
   11.71361065  106.22899628    3.32999992    2.23000002
   11.71666622  103.07399750    3.32999992    2.23000002
   11.71999931  104.90499878    3.32999992    2.23000002
   11.72305489  103.27200317    3.32999992    2.23000002
   11.72777748  103.27200317    3.30999994    2.25000000
   11.73194408  103.99099731    3.30999994    2.25000000
   11.73500061  101.44200134    3.30999994    2.25000000
   11.73833370  102.84700012    3.25000000    2.26999998
   11.74166679  104.57900238    3.25000000    2.26999998
   11.74472237   99.28559875    3.25000000    2.26999998
   11.74805546  107.97299957    3.25000000    2.26999998
   11.75111103  104.99500275    3.20000005    2.28999996
   11.75444412  106.61000061    3.20000005    2.28999996
   11.75777817  101.74900055    3.20000005    2.28999996
   11.76222229  101.74900055    3.20000005    2.28999996
   11.76638889  106.44699860    3.21000004    2.28999996
   11.76972198  110.11900330    3.21000004    2.28999996
   11.77277756  107.84999847    3.21000004    2.28999996
   11.77611065  105.61399841    3.21000004    2.28999996
   11.77916622  113.48899841    3.21000004    2.28999996
   11.78249931  100.05599976    3.21000004    2.28999996
   11.78583336  114.84200287    3.21000004    2.28999996
   11.78888893  105.47100067    3.21000004    2.28999996
   11.79222298  102.17800140    3.21000004    2.28999996
   11.79666710  102.17800140    3.21000004    2.28999996
   11.80083370  102.23999786    3.21000004    2.28999996
   11.80416679   95.66639709    3.21000004    2.28999996
   11.80722237  101.31199646    3.21000004    2.28999996
   11.81055546  106.73999786    3.21000004    2.28999996
   11.81388950   96.36060333    3.20000005    2.28999996
   11.81694412   99.40769958    3.20000005    2.28999996
   11.82027817  100.92500305    3.20000005    2.28999996
   11.82361126  102.75000000    3.20000005    2.28999996
   11.82666683   97.81770325    3.20000005    2.28999996
   11.83138847   97.81770325    3.20000005    2.28999996
   11.83527756  112.57700348    3.20000005    2.28999996
   11.83861065   93.80269623    3.20000005    2.28999996
   11.84194374  101.38700104    3.20000005    2.28999996
   11.84499931   94.08029938    3.20000005    2.28999996
   11.84833336   97.09950256    3.20000005    2.28999996
   11.85166740   95.58930206    3.20000005    2.28999996
   11.85472298   96.94219971    3.01999998    2.32999992
   11.85805607   93.71230316    3.01999998    2.32999992
   11.86111164  100.51599884    3.01999998    2.32999992
   11.86583328  100.51599884    3.01999998    2.32999992
   11.86999989  101.58399963    2.96000004    2.32999992
   11.87305546   97.86660004    2.96000004    2.32999992
   11.87638855  107.28299713    2.96000004    2.32999992
   11.87972260   99.87509918    2.96000004    2.32999992
   11.88277817   99.31719971    2.75000000    2.36999989
   11.88611126  105.39499664    2.75000000    2.36999989
   11.88916683  102.56199646    2.75000000    2.36999989
   11.89249992  103.23100281    2.75000000    2.36999989
   11.89583302   98.15170288    2.75000000    2.36999989
   11.90027714   98.15170288    2.76999998    2.36999989
   11.90444374  102.77799988    2.76999998    2.36999989
   11.90749931  102.83399963    2.76999998    2.36999989
   11.91083336   95.66290283    2.75000000    2.39000010
   11.91416645   98.01409912    2.75000000    2.39000010
   11.91722298   94.95539856    2.75000000    2.36999989
   11.92055607  102.67900085    2.75000000    2.36999989
   11.92388916   93.07340240    2.75000000    2.36999989
   11.92694473   97.96240234    2.75000000    2.36999989
   11.93027782   98.72519684    2.75000000    2.36999989
   11.93472195   98.72519684    2.75000000    2.36999989
   11.93888855   91.92500305    2.75000000    2.36999989
   11.94222260   96.74230194    2.71000004    2.39000010
   11.94527817   99.23310089    2.64000010    2.40000010
   11.94861126  100.67600250    2.64000010    2.40000010
   11.95194435  108.88899994    2.64000010    2.40000010
   11.95499992   97.41169739    2.64000010    2.40000010
   11.95833302   94.43409729    2.64000010    2.40000010
   11.96166611   94.10839844    2.64000010    2.40000010
   11.96472168   97.74629974    2.64000010    2.40000010
   11.96916580   97.74629974    2.66000009    2.40000010
   11.97333336   96.13300323    2.66000009    2.40000010
   11.97666645  103.02300262    2.66000009    2.40000010
   11.97999954  101.67800140    2.66000009    2.40000010
   11.98305511  105.02700043    2.66000009    2.40000010
   11.98638916  100.76399994    2.66000009    2.40000010
   11.98944473   88.16699982    2.66000009    2.40000010
   11.99277782  100.36799622    2.66000009    2.40000010
   11.99611092   95.82929993    2.66000009    2.40000010
   11.99916649  103.65000153    2.66000009    2.40000010
   12.00388908  103.65000153    2.66000009    2.40000010
   12.00805569   96.19020081    2.66000009    2.40000010
   12.01111126   91.25050354    2.66000009    2.40000010
   12.01444435   95.37380219    2.66000009    2.40000010
   12.01777744   94.64009857    2.67000008    2.40000010
   12.02083302   92.89659882    2.67000008    2.40000010
   12.02416611   96.65509796    2.67000008    2.40000010
   12.02861118  100.31600189    2.67000008    2.40000010
   12.03222179   97.16000366    2.66000009    2.42000008
   12.03833389   97.16000366    2.61999989    2.42000008
   12.04361153   98.73999786    2.61999989    2.42000008
   12.04805565   95.89019775    2.61999989    2.42000008
   12.05222225  100.03099823    2.57999992    2.42000008
   12.05555534   89.25959778    2.57999992    2.42000008
   12.06000042  101.25900269    2.57999992    2.42000008
   12.06416702   99.52819824    2.57999992    2.42000008
   12.06805515  102.54399872    2.57999992    2.42000008
   12.07361126  102.54399872    2.57999992    2.42000008
   12.07833290  109.59200287    2.46000004    2.44000006
   12.08194447   97.79850006    2.44000006    2.44000006
   12.08583260  104.09799957    2.44000006    2.44000006
   12.08888817  101.42800140    2.44000006    2.44000006
   12.09222221  103.16000366    2.44000006    2.46000004
   12.09555531  102.52899933    2.42000008    2.46000004
   12.09888840  101.40699768    2.42000008    2.46000004
   12.10194492  102.92400360    2.42000008    2.46000004
   12.10750008  102.92400360    2.42000008    2.46000004
   12.11166668  106.68199921    2.42000008    2.46000004
   12.11500072   98.86070251    2.42000008    2.46000004
   12.11833382  104.01100159    2.42000008    2.46000004
   12.12166691  102.84100342    2.42000008    2.46000004
   12.12500000  101.09400177    2.42000008    2.46000004
   12.12833309  100.80699921    2.42000008    2.46000004
   12.13361073  106.04000092    2.46000004    2.46000004
   12.13694477  107.96199799    2.46000004    2.46000004
   12.14222240  107.96199799    2.48000002    2.46000004
   12.14638901   98.19660187    2.48000002    2.46000004
   12.14972210  103.84999847    2.48000002    2.46000004
   12.15305519   91.83159637    2.48000002    2.46000004
   12.15611076  102.86399841    2.48000002    2.46000004
   12.15944386   97.67109680    2.48000002    2.46000004
   12.16277695  102.94400024    2.48000002    2.46000004
   12.16611099   91.01950073    2.48000002    2.46000004
   12.16916656   93.20839691    2.48000002    2.46000004
   12.17277813   89.62519836    2.48000002    2.46000004
   12.17722225   89.62519836    2.50000000    2.46000004
   12.18166733   92.69550323    2.50000000    2.46000004
   12.18555546   93.03679657    2.50000000    2.46000004
   12.18888855   96.01100159    2.50000000    2.46000004
   12.19222260   92.24539948    2.50000000    2.46000004
   12.19555569   98.73719788    2.50000000    2.46000004
   12.19888878   97.01470184    2.50000000    2.46000004
   12.20249939   95.82409668    2.51999998    2.48000002
   12.20583344   96.81890106    2.51999998    2.48000002
   12.21138859   96.81890106    2.51999998    2.48000002
   12.21583271   95.72200012    2.51999998    2.48000002
   12.21916580   95.83309937    2.51999998    2.48000002
   12.22249985   93.15229797    2.51999998    2.48000002
   12.22583294  105.69899750    2.51999998    2.48000002
   12.22916603  109.92099762    2.51999998    2.48000002
   12.23249912  111.39700317    2.51999998    2.48000002
   12.23611164  106.72000122    2.51999998    2.48000002
   12.23944473  107.66600037    2.51999998    2.48000002
   12.24611092  107.66600037    2.51999998    2.48000002
   12.25027752  103.91300201    2.46000004    2.46000004
   12.25361156  106.84799957    2.46000004    2.46000004
   12.25666714  102.32299805    2.30999994    2.50000000
   12.26027775  103.44200134    2.26999998    2.51999998
   12.26333332  101.57599640    2.25000000    2.50000000
   12.26666641  112.74700165    2.25000000    2.51999998
   12.26999950  105.90699768    2.23000002    2.51999998
   12.27333355  100.68199921    2.23000002    2.51999998
   12.28055573  100.68199921    2.21000004    2.51999998
   12.28472233   97.62500000    2.21000004    2.51999998
   12.28833389   99.91860199    2.21000004    2.51999998
   12.29166698  103.88600159    2.21000004    2.51999998
   12.29472256  103.64399719    2.19000006    2.50000000
   12.29833412  104.21299744    2.19000006    2.51999998
   12.30166721  120.15899658    2.19000006    2.51999998
   12.30500031  116.96900177    2.19000006    2.51999998
   12.30833340  107.68299866    2.19000006    2.51999998
   12.31500053  107.68299866    2.21000004    2.51999998
   12.31916618  106.61000061    2.21000004    2.51999998
   12.32305527  108.32599640    2.21000004    2.53999996
   12.32611084  109.80899811    2.21000004    2.50000000
   12.32944393  106.95200348    2.21000004    2.51999998
   12.33277798  105.49800110    2.21000004    2.51999998
   12.33583260  109.22299957    2.19000006    2.51999998
   12.33916664  105.23799896    2.19000006    2.51999998
   12.34249973  100.48300171    2.19000006    2.55999994
   12.34583282  110.12100220    2.17000008    2.53999996
   12.35000038  110.12100220    2.17000008    2.53999996
   12.35416698   99.37319946    2.17000008    2.55999994
   12.35722256  104.87799835    2.15000010    2.53999996
   12.36055565   98.68689728    2.13000011    2.53999996
   12.38027763  104.28600311    2.03999996    2.55999994
   12.38472176  104.28600311    2.01999998    2.57999992
   12.38888836   97.30159760    2.01999998    2.55999994
   12.39222240  101.64499664    2.01999998    2.55999994
   12.39527798  103.29000092    2.01999998    2.55999994
   12.39861107  103.62599945    2.01999998    2.55999994
   12.40194416  101.76899719    2.01999998    2.53999996
   12.40499973   96.59780121    2.01999998    2.55999994
   12.40833282  111.25399780    2.00000000    2.53999996
   12.41138840  107.29599762    2.00000000    2.57999992
   12.41472149  104.63800049    1.98000002    2.57999992
   12.41916656  104.63800049    1.98000002    2.57999992
   12.42361164  106.77400208    1.96000004    2.55999994
   12.42694473  100.90399933    1.96000004    2.55999994
   12.43027782  102.53299713    1.96000004    2.55999994
   12.43361092  100.65799713    1.96000004    2.55999994
   12.43666649  104.75099945    1.96000004    2.55999994
   12.44000053  104.63200378    1.96000004    2.55999994
   12.44333363  102.62000275    1.94000006    2.57999992
   12.44666672  101.08699799    1.94000006    2.57999992
   12.45361137  101.08699799    1.94000006    2.57999992
   12.45777798  108.06199646    1.94000006    2.57999992
   12.46111107  101.61399841    1.94000006    2.57999992
   12.46416664  107.41500092    1.94000006    2.59999990
   12.46749973  107.08300018    1.89999998    2.57999992
   12.47083282  103.17299652    1.89999998    2.59999990
   12.47416592   93.37709808    1.89999998    2.57999992
   12.47749996  110.06199646    1.89999998    2.57999992
   12.48083305   98.19680023    1.89999998    2.59999990
   12.48416710  104.03199768    1.89999998    2.59999990
   12.48833370  104.03199768    1.89999998    2.59999990
   12.49250031  101.33399963    1.88000000    2.59999990
   12.49583340   97.87889862    1.88000000    2.59999990
   12.49916649  102.21399689    1.88000000    2.59999990
   12.50249958  102.52200317    1.89999998    2.59999990
   12.50555515  110.43499756    1.91999996    2.57999992
   12.50888920  108.14600372    1.89999998    2.57999992
   12.51222229  105.40599823    1.89999998    2.59999990
   12.51527786   96.56839752    1.88000000    2.59999990
   12.51861095  108.01999664    1.88000000    2.59999990
   12.52277756  108.01999664    1.86000001    2.61999989
   12.52694416   96.02690125    1.86000001    2.61999989
   12.52999973  109.47799683    1.86000001    2.59999990
   12.53361130  101.81199646    1.86000001    2.61999989
   12.53666687   99.41210175    1.86000001    2.59999990
   12.54000092  101.73999786    1.86000001    2.59999990
   12.54305553  102.58699799    1.86000001    2.59999990
   12.54638958  101.84600067    1.86000001    2.59999990
   12.54972267  108.34700012    1.85000002    2.61999989
   12.55277824  102.87000275    1.85000002    2.61999989
   12.55722237  102.87000275    1.85000002    2.59999990
   12.56138897  102.13099670    1.85000002    2.59999990
   12.56472206  102.65599823    1.85000002    2.61999989
   12.56805515  106.59500122    1.85000002    2.61999989
   12.57138920  100.46700287    1.85000002    2.61999989
   12.57444477  102.24800110    1.83000004    2.61999989
   12.57777786  102.28500366    1.83000004    2.59999990
   12.58111095  101.52100372    1.80999994    2.61999989
   12.58444405  104.93599701    1.80999994    2.61999989
   12.58777714   98.27580261    1.80999994    2.61999989
   12.59194374   98.27580261    1.78999996    2.61999989
   12.59611034  100.46099854    1.78999996    2.61999989
   12.59944439  100.56800079    1.78999996    2.61999989
   12.60249996  100.37999725    1.78999996    2.59999990
   12.60583401  104.82900238    1.80999994    2.61999989
   12.60888958  107.98200226    1.80999994    2.61999989
   12.61222267   96.20040131    1.80999994    2.61999989
   12.61555576   96.45749664    1.80999994    2.61999989
   12.61861134  101.93900299    1.80999994    2.61999989
   12.62194443  101.76899719    1.80999994    2.61999989
   12.62638855  101.76899719    1.85000002    2.61999989
   12.63055611   97.66239929    1.85000002    2.61999989
   12.63388920   96.80950165    1.85000002    2.61999989
   12.63694477  105.81400299    1.85000002    2.61999989
   12.64027786  102.09100342    1.83000004    2.61999989
   12.64333344   88.82219696    1.86000001    2.61999989
   12.64666653  105.78600311    1.86000001    2.64000010
   12.65111065   98.22560120    1.86000001    2.61999989
   12.65416622   95.02649689    1.89999998    2.61999989
   12.66083336   95.02649689    1.89999998    2.61999989
   12.66499996  105.34899902    1.89999998    2.64000010
   12.66833401   96.50090027    1.88000000    2.64000010
   12.67138958   97.52999878    1.88000000    2.64000010
   12.67472267   97.83439636    1.88000000    2.64000010
   12.67805576   98.51239777    1.88000000    2.64000010
   12.68111134   95.25679779    1.86000001    2.64000010
   12.68444443   96.63970184    1.88000000    2.64000010
   12.68777752   97.52970123    1.86000001    2.61999989
   12.69083309   99.33769989    1.86000001    2.64000010
   12.69555569   99.33769989    1.86000001    2.61999989
   12.69944477  101.00900269    1.86000001    2.64000010
   12.70277786   97.91030121    1.86000001    2.64000010
   12.70611095   99.61730194    1.86000001    2.64000010
   12.70916653  103.01999664    1.83000004    2.64000010
   12.71249962   94.12999725    1.80999994    2.64000010
   12.71583271  100.23899841    1.83000004    2.64000010
   12.71888828  105.86599731    1.83000004    2.64000010
   12.72222137  103.93900299    1.85000002    2.64000010
   12.72555542   92.39289856    1.86000001    2.64000010
   12.72999954   92.39289856    1.86000001    2.64000010
   12.73416710  106.35700226    1.86000001    2.64000010
   12.73722267   94.68750000    1.86000001    2.64000010
   12.74055576  100.52799988    1.86000001    2.64000010
   12.74388885  100.67500305    1.86000001    2.64000010
   12.74694443  101.78099823    1.86000001    2.64000010
   12.75027752   97.70639801    1.86000001    2.64000010
   12.75333309   98.88549805    1.86000001    2.64000010
   12.75666714   90.00379944    1.86000001    2.64000010
   12.76000023   94.88259888    1.88000000    2.64000010
   12.76444435   94.88259888    1.88000000    2.64000010
   12.76861095  103.51300049    1.88000000    2.64000010
   12.77194405   94.22609711    1.88000000    2.64000010
   12.77499962   98.43270111    1.88000000    2.61999989
   12.77833271   93.48750305    1.86000001    2.66000009
   12.78138828   95.45880127    1.86000001    2.66000009
   12.78472233   94.00279999    1.86000001    2.64000010
   12.78805637   98.58380127    1.86000001    2.64000010
   12.79111195   96.63349915    1.86000001    2.64000010
   12.79444504   92.86039734    1.86000001    2.64000010
   12.79888916   92.86039734    1.89999998    2.64000010
   12.80305576  104.39600372    1.91999996    2.64000010
   12.80638885   95.51470184    1.91999996    2.64000010
   12.80944443  105.91899872    1.89999998    2.66000009
   12.81277752  102.85900116    1.91999996    2.64000010
   12.81611156  103.71700287    1.91999996    2.64000010
   12.81944466   98.56159973    1.91999996    2.66000009
   12.82250023   98.31900024    1.94000006    2.64000010
   12.82583332  103.61499786    1.94000006    2.64000010
   12.82888889   96.20960236    1.94000006    2.64000010
   12.83361053   96.20960236    1.94000006    2.64000010
   12.83777714  101.01499939    1.94000006    2.64000010
   12.84083271  105.60299683    1.94000006    2.64000010
   12.84416676   99.28109741    1.94000006    2.64000010
   12.84722233   96.63159943    1.94000006    2.64000010
   12.85055637   90.75920105    1.96000004    2.64000010
   12.85388947  100.55400085    1.94000006    2.64000010
   12.85694504   94.49649811    1.91999996    2.66000009
   12.86027813  107.97399902    1.91999996    2.64000010
   12.86361122  103.62899780    1.91999996    2.64000010
   12.86805534  103.62899780    1.89999998    2.66000009
   12.87222195   95.76029968    1.89999998    2.66000009
   12.87527752   97.76069641    1.89999998    2.66000009
   12.87861156   99.61319733    1.89999998    2.66000009
   12.88166714  100.13800049    1.89999998    2.66000009
   12.88500023  101.56700134    1.89999998    2.66000009
   12.88833332   96.16940308    1.89999998    2.66000009
   12.89138889   92.91110229    1.89999998    2.64000010
   12.89472198   95.81620026    1.91999996    2.66000009
   12.89805508   98.77629852    1.91999996    2.66000009
   12.90249920   98.77629852    1.91999996    2.66000009
   12.90666676   98.48049927    1.91999996    2.66000009
   12.90972137  100.94799805    1.89999998    2.64000010
   12.91305542   99.72010040    1.89999998    2.66000009
   12.91638851  105.65699768    1.89999998    2.66000009
   12.91944504   91.94400024    1.89999998    2.66000009
   12.92277813   97.86820221    1.89999998    2.66000009
   12.92611122   96.44539642    1.89999998    2.67000008
   12.92916679   96.14320374    1.89999998    2.67000008
   12.93249989   99.70200348    1.89999998    2.67000008
   12.93694496   99.70200348    1.89999998    2.66000009
   12.94111156   99.87200165    1.88000000    2.67000008
   12.94444466  103.27100372    1.88000000    2.66000009
   12.94750023   98.75289917    1.88000000    2.66000009
   12.95083332  104.20200348    1.88000000    2.66000009
   12.95416641   99.05269623    1.88000000    2.66000009
   12.95722198   99.47039795    1.88000000    2.66000009
   12.96055508  102.78199768    1.89999998    2.66000009
   12.96361065  107.37000275    1.89999998    2.67000008
   12.96694374   98.41169739    1.89999998    2.66000009
   12.97138882   98.41169739    1.89999998    2.66000009
   12.97555542  104.57900238    1.88000000    2.67000008
   12.97888851  100.41600037    1.86000001    2.67000008
   12.98222160   98.91619873    1.86000001    2.67000008
   12.98527813   97.86810303    1.86000001    2.67000008
   12.98861122   97.72879791    1.86000001    2.67000008
   12.99194431   95.15209961    1.86000001    2.67000008
   12.99499989  105.17199707    1.86000001    2.67000008
   12.99833393   99.51589966    1.86000001    2.67000008
   13.00138855   98.13240051    1.86000001    2.67000008
   13.00611115   98.13240051    1.86000001    2.67000008
   13.01027775   99.42469788    1.86000001    2.67000008
   13.01333332  105.81900024    1.86000001    2.66000009
   13.01666641   97.85060120    1.78999996    2.67000008
   13.01999950  101.59799957    1.78999996    2.67000008
   13.02305508   94.35330200    1.78999996    2.67000008
   13.02638817   96.69730377    1.75000000    2.67000008
   13.02972221   94.49890137    1.75000000    2.69000006
   13.03277779  101.28399658    1.73000002    2.69000006
   13.03611183  102.10800171    1.73000002    2.69000006
   13.04166698  102.10800171    1.71000004    2.67000008
   13.04611111   97.74539948    1.66999996    2.69000006
   13.04916668  102.95200348    1.66999996    2.69000006
   13.05249977   92.11789703    1.66999996    2.67000008
   13.05555534   93.37010193    1.69000006    2.69000006
   13.05888939  104.07800293    1.69000006    2.69000006
   13.06222248   90.52249908    1.69000006    2.71000004
   13.06527805  101.30200195    1.69000006    2.69000006
   13.06861115  102.84100342    1.69000006    2.69000006
   13.07499981  102.84100342    1.69000006    2.69000006
   13.07916641   98.85279846    1.69000006    2.69000006
   13.08249950   98.50469971    1.69000006    2.69000006
   13.08583260  100.65200043    1.69000006    2.69000006
   13.08888817  106.04900360    1.80999994    2.69000006
   13.09222221   97.38590240    1.80999994    2.69000006
   13.09555531  100.28900146    1.86000001    2.67000008
   13.09861088  106.64499664    1.88000000    2.69000006
   13.10194492  101.19599915    1.88000000    2.67000008
   13.10500050  108.09600067    1.91999996    2.67000008
   13.10972214  108.09600067    1.94000006    2.69000006
   13.11388969  104.31199646    1.85000002    2.69000006
   13.11694431  106.32700348    1.83000004    2.69000006
   13.12027836  104.01200104    1.83000004    2.69000006
   13.12361145   99.33719635    1.83000004    2.69000006
   13.12666702   95.54149628    1.80999994    2.69000006
   13.13000011   99.32980347    1.76999998    2.71000004
   13.13333321  108.28700256    1.75000000    2.71000004
   13.13638878  102.34300232    1.73000002    2.69000006
   13.13972187  103.69699860    1.71000004    2.71000004
   13.14416695  103.69699860    1.71000004    2.71000004
   13.14833355   92.86360168    1.69000006    2.71000004
   13.15166664  101.10900116    1.69000006    2.71000004
   13.15472221  102.50499725    1.73000002    2.73000002
   13.15805531   97.37729645    1.94000006    2.73000002
   13.16111088   97.59680176    4.38999987    2.73000002
   13.16444397  105.61599731    2.11999989    2.66000009
   13.16777802  107.25299835    2.01999998    2.69000006
   13.17083359  107.56300354    1.71000004    2.71000004
   13.17416668   99.32070160    1.69000006    2.71000004
   13.17861176   99.32070160    1.66999996    2.73000002
   13.18277836   97.24130249    1.64999998    2.71000004
   13.18611145  100.20099640    1.64999998    2.71000004
   13.18916702   99.72730255    1.63000000    2.71000004
   13.19250011   95.63580322    1.63000000    2.71000004
   13.19611073   94.09790039    1.63000000    2.71000004
   13.19944477  104.24400330    1.60000002    2.71000004
   13.20249939  100.66899872    1.61000001    2.71000004
   13.20583344  101.58200073    1.60000002    2.73000002
   13.20916653   98.98789978    1.61000001    2.71000004
   13.21333313   98.98789978    1.61000001    2.71000004
   13.21749973  105.31500244    1.61000001    2.73000002
   13.22083282   95.32890320    1.63000000    2.73000002
   13.22388840  107.62999725    1.63000000    2.73000002
   13.22722149   91.91929626    1.63000000    2.73000002
   13.23055553   97.81340027    1.63000000    2.73000002
   13.23361111  103.86399841    2.21000004    2.71000004
   13.23694515  107.59799957    4.07999992    2.71000004
   13.24027824  105.91500092    4.90999985    2.71000004
   13.24333382  114.93000031    4.90999985    2.69000006
   13.24777794  114.93000031    4.90999985    2.64000010
   13.25194454   -1.00000000    4.90999985    2.64000010
   13.25527763   -1.00000000    4.90999985    2.66000009
   13.25833321  134.57899475    4.90999985    2.66000009
   13.26166630  298.29400635    4.90999985    0.58999997
   13.26500034  112.33000183    4.90999985    1.13000000
   13.26833344  122.16000366    4.90999985    1.13000000
   13.27138901  113.62000275    4.90999985    2.30999994
   13.27472210  156.86599731    4.90999985    2.34999990
   13.27777767  157.04899597    4.90999985    2.05999994
   13.28222179  157.04899597    4.90999985    2.05999994
   13.28638935   -1.00000000    4.90999985    2.05999994
   13.28972244   -1.00000000    4.90999985    2.44000006
   13.29305553   -1.00000000    4.90999985    2.44000006
   13.29611111   -1.00000000   -1.00000000   -1.00000000
   13.29944515  265.29501343    4.90999985    0.36000001
   13.30249977  184.60000610    4.90999985    0.36000001
   13.30583382  190.93400574    4.90999985    0.36000001
   13.30916691  219.25599670    4.90999985    0.36000001
   13.31222248   -1.00000000    4.90999985    0.73000002
   13.31694412   -1.00000000    4.90999985    0.73000002
   13.32111073  183.31500244    4.90999985    0.73000002
   13.32416630  203.74000549    4.90999985    1.14999998
   13.32750034  166.14900208    4.90999985    1.14999998
   13.33083344  189.48399353    4.90999985    1.14999998
   13.33388901  193.58599854    2.05999994    2.73000002
   13.33722210  169.97399902    1.83000004    2.73000002
   13.34055519  191.86399841    1.83000004    2.73000002
   13.34361076  199.62100220    3.26999998    2.71000004
   13.34694386  193.30099487    3.05999994    2.73000002
   13.35138893  193.30099487    2.17000008    2.75000000
   13.35555553  188.36199951    2.17000008    2.75000000
   13.35861111  180.74000549    2.17000008    2.75000000
   13.36194515  202.07600403    2.17000008    2.75000000
   13.36500072  201.31799316    2.07999992    2.75000000
   13.36833382  187.54200745    4.90999985    2.75000000
   13.37166691  174.22099304    4.90999985    2.75000000
   13.37472248  186.50999451    4.90999985    2.75000000
   13.37805557  163.56500244    4.90999985    2.75000000
   13.39916611  163.56500244    3.03999996    2.73000002
   13.40333271  109.21499634    3.03999996    2.73000002
   13.40666676  165.00300598    2.69000006    2.73000002
   13.40999985  169.67399597    2.69000006    2.73000002
   13.41305542  150.45500183    4.90999985    2.71000004
   13.41638851  176.05000305    2.25000000    2.75000000
   13.41944504  180.88299561    2.25000000    2.75000000
   13.42277813  170.05099487    2.25000000    2.75000000
   13.42611122  167.24099731    2.25000000    2.75000000
   13.42944431  171.33599854    2.25000000    2.75000000
   13.43361092  171.33599854    1.50000000    2.75000000
   13.43777752  173.45799255    1.50000000    2.75000000
   13.44111156  152.58900452    1.50000000    2.75000000
   13.44444466  179.56399536    3.45000005    2.76999998
   13.44750023  168.99400330    4.80000019    2.76999998
   13.45083332  153.14900208    4.90999985    2.75000000
   13.45416641  260.98199463    4.90999985    2.75000000
   13.45749950  265.44299316    4.90999985    1.23000002
   13.46055508   -1.00000000    4.90999985    0.83999997
   13.46388912   -1.00000000    4.90999985    0.20999999
   13.47222137  222.42700195    4.90999985    2.23000002
   13.47555542  175.75999451    4.90999985    2.46000004
   13.47861099  176.68600464    4.90999985    2.82999992
   13.48194408   -1.00000000    4.90999985    1.34000003
   13.48500061   -1.00000000    4.90999985    0.46000001
   13.48833370   -1.00000000    4.90999985    0.46000001
   13.49166679  118.40599823    4.90999985    0.46000001
   13.49472237  289.88699341    4.90999985    0.46000001
   13.49805546   -1.00000000    4.90999985    0.46000001
   13.50388908   -1.00000000    4.90999985    0.44000000
   13.50805569  168.55200195    4.90999985    2.11999989
   13.51138878  177.77099609    4.90999985    2.11999989
   13.51472187  102.30999756    4.90999985    2.28999996
   13.51805496  116.99600220    4.90999985    2.57999992
   13.52138901  150.05400085    4.90999985    2.80999994
   13.52444458  157.54699707    4.90999985    2.80999994
   13.52777767  160.67900085    4.90999985    2.78999996
   13.53111076  152.32000732    3.41000009    2.78999996
   13.53722286  152.32000732    3.45000005    2.76999998
   13.54138947  163.73300171    4.01999998    2.78999996
   13.54444504  174.16600037    4.01999998    2.78999996
   13.54777813  157.69799805    4.57999992    2.80999994
   13.55111122  104.96499634    4.90999985    2.30999994
   13.55416679  122.76899719    4.90999985    1.76999998
   13.55749989   -1.00000000    4.90999985    0.89999998
   13.56055546   84.49189758    4.90999985    0.47999999
   13.56388950   -1.00000000    4.90999985    2.51999998
   13.56722260   -1.00000000    4.90999985    2.51999998
   13.57555580  200.48599243    4.90999985    0.17000000
   13.57888889  134.54200745    4.90999985    2.89000010
   13.58222198  111.56800079    4.05999994    2.84999990
   13.58527756  153.93800354    1.14999998    2.80999994
   13.58861065  138.54800415    1.13000000    2.80999994
   13.59194374  136.54400635    1.38000000    2.80999994
   13.59499931  133.07600403    1.16999996    2.78999996
   13.59833336  133.91900635    1.16999996    2.78999996
   13.60166740  140.74800110    1.16999996    2.78999996
   13.60611153  140.74800110    1.16999996    2.78999996
   13.61027813  144.77999878    1.16999996    2.78999996
   13.61361122  134.28100586    1.14999998    2.80999994
   13.61666679  135.11700439    1.14999998    2.80999994
   13.61999989  140.80499268    1.11000001    2.80999994
   13.62333393  139.28599548    1.11000001    2.78999996
   13.62638855  141.92999268    1.11000001    2.78999996
   13.62972260  135.21400452    1.11000001    2.78999996
   13.63277817  139.35699463    1.21000004    2.78999996
   13.63611126  152.56799316    1.23000002    2.78999996
   13.64055538  152.56799316    1.25000000    2.78999996
   13.64472198  128.35400391    1.30999994    2.78999996
   13.64805508  136.76699829    1.34000003    2.80999994
   13.65138817  138.47300720    1.34000003    2.78999996
   13.65444374  135.16299438    1.34000003    2.76999998
   13.65777779  126.38500214    1.36000001    2.78999996
   13.66083336  128.46299744    1.36000001    2.78999996
   13.66416645  140.39100647    1.34000003    2.78999996
   13.66750050  130.20300293    1.34000003    2.78999996
   13.67055607  135.93200684    1.34000003    2.78999996
   13.67527771  135.93200684    1.34000003    2.78999996
   13.67916679  141.32899475    1.36000001    2.76999998
   13.68249989  125.49400330    1.36000001    2.76999998
   13.68583298  131.88400269    1.36000001    2.76999998
   13.68888855  131.06100464    1.61000001    2.67000008
   13.69222260  161.85000610    3.28999996    2.78999996
   13.69555569  129.66299438    4.90999985    2.78999996
   13.69861126   99.81459808    4.90999985    2.71000004
   13.70194435  128.57200623    4.90999985    2.71000004
   13.70527744  128.63699341    4.90999985    2.71000004
   13.70972157  128.63699341    1.41999996    2.78999996
   13.71388912  125.85399628    1.39999998    2.78999996
   13.71694374  130.65600586    1.39999998    2.78999996
   13.72027779  124.37999725    1.39999998    2.78999996
   13.72333336  130.24400330    1.39999998    2.78999996
   13.72666645  125.56300354    1.39999998    2.78999996
   13.72999954  124.00000000    1.39999998    2.78999996
   13.73305511  117.78099823    1.39999998    2.78999996
   13.73638916  128.10299683    1.39999998    2.78999996
   13.73972225  115.56900024    1.33000004    2.76999998
   13.74416733  115.56900024    1.25000000    2.78999996
   13.74833393  119.97899628    1.19000006    2.80999994
   13.75138855  116.42099762    1.16999996    2.80999994
   13.75472260  116.88800049    1.14999998    2.78999996
   13.75805569  122.84400177    1.13000000    2.80999994
   13.76111126  113.34799957    1.11000001    2.80999994
   13.76444435  113.81099701    1.11000001    2.82999992
   13.76777744  110.26100159    1.09000003    2.82999992
   13.77083302  111.68599701    1.09000003    2.80999994
   13.77416611  113.08000183    1.07000005    2.82999992
   13.77861118  113.08000183    1.11000001    2.82999992
   13.78277779  105.55100250    1.09000003    2.82999992
   13.78611183  122.99199677    1.07000005    2.82999992
   13.78916740  125.31999969    1.07000005    2.82999992
   13.79250050  116.52400208    1.07000005    2.82999992
   13.79583359  107.61699677    1.07000005    2.82999992
   13.79888916  116.85399628    1.07000005    2.82999992
   13.80222225  111.98999786    1.07000005    2.82999992
   13.80527782  113.71299744    1.07000005    2.82999992
   13.80861092  116.88700104    1.07000005    2.82999992
   13.81305599  116.88700104    1.07000005    2.82999992
   13.81722260  121.24500275    1.11000001    2.82999992
   13.82055569  109.02999878    1.13000000    2.82999992
   13.82388878  114.38300323    1.13000000    2.82999992
   13.82694435  111.19100189    1.19000006    2.80999994
   13.83027744  107.77200317    1.19000006    2.80999994
   13.83333302  114.27300262    1.19000006    2.82999992
   13.83666611  123.22000122    1.21000004    2.80999994
   13.84000015  112.74900055    1.21000004    2.80999994
   13.84305477  107.49900055    1.23000002    2.80999994
   13.84777737  107.49900055    1.26999998    2.80999994
   13.85166740  105.62899780    1.26999998    2.80999994
   13.85500050  111.22899628    1.26999998    2.80999994
   13.85833359  113.02300262    1.26999998    2.80999994
   13.86138916  104.34300232    1.26999998    2.80999994
   13.86472225  110.87899780    1.26999998    2.78999996
   13.86805534  108.30699921    1.28999996    2.80999994
   13.87111092  109.83399963    1.34000003    2.78999996
   13.87444496   99.22429657    1.34000003    2.78999996
   13.87777805  105.89600372    1.33000004    2.78999996
   13.88222218  105.89600372    1.34000003    2.80999994
   13.88638878  103.52799988    1.34000003    2.80999994
   13.88944435  112.22200012    1.33000004    2.80999994
   13.89277744   93.56379700    1.33000004    2.80999994
   13.89611053  100.20300293    1.34000003    2.80999994
   13.89916611  101.82800293    4.90999985    2.76999998
   13.90249920  101.49600220    4.90999985    2.76999998
   13.90583324   99.97799683    4.90999985    2.76999998
   13.90888882   81.22859955    4.90999985    2.76999998
   13.91222191  104.31700134    4.90999985    2.80999994
   13.91666698  104.31700134    1.48000002    2.82999992
   13.92083359  102.71600342    1.30999994    2.80999994
   13.92416668  108.46499634    1.28999996    2.82999992
   13.92722225   98.04900360    1.28999996    2.82999992
   13.93055630   95.62239838    1.28999996    2.82999992
   13.93361092  101.15499878    1.28999996    2.80999994
   13.93694496   95.52519989    1.28999996    2.80999994
   13.94027805  108.59500122    1.28999996    2.80999994
   13.94333363  102.79000092    1.28999996    2.80999994
   13.94666672  101.11399841    1.28999996    2.80999994
   13.95111084  101.11399841    1.28999996    2.80999994
   13.95527744   98.16400146    1.28999996    2.80999994
   13.95861053   98.25180054    1.28999996    2.80999994
   13.96166611  102.27999878    1.28999996    2.80999994
   13.96500015  101.38099670    1.28999996    2.80999994
   13.96833324  106.05699921    1.28999996    2.80999994
   13.97138882  104.65699768    1.28999996    2.80999994
   13.97472191  103.82299805    1.28999996    2.80999994
   13.97805500  105.80799866    1.16999996    2.82999992
   13.98111057  107.30400085    1.11000001    2.84999990
   13.98583317  107.30400085    1.09000003    2.82999992
   13.98972225  106.03099823    1.09000003    2.84999990
   13.99305534  101.75700378    1.09000003    2.84999990
   13.99638939  100.59999847    1.09000003    2.84999990
   13.99944496  106.02200317    1.07000005    2.82999992
   14.00277805  101.60099792    1.05999994    2.82999992
   14.00583363  105.06600189    1.03999996    2.82999992
   14.00916672   99.11499786    1.03999996    2.82999992
   14.01249981  100.14199829    1.05999994    2.82999992
   14.01555538   99.57489777    1.03999996    2.84999990
   14.02027798   99.57489777    1.01999998    2.84999990
   14.02444458   99.27809906    1.00000000    2.84999990
   14.02750015   94.59040070    0.98000002    2.84999990
   14.03083324   98.62570190    0.98000002    2.84999990
   14.03388977   94.63719940    0.98000002    2.84999990
   14.03722286   91.18470001    1.00000000    2.84999990
   14.04055595   94.88960266    0.98000002    2.84999990
   14.04361153  102.89900208    1.00000000    2.84999990
   14.04694462   97.55030060    1.00000000    2.84999990
   14.05027771  100.26999664    1.00000000    2.84999990
   14.05472279  100.26999664    1.01999998    2.84999990
   14.05888939   96.62770081    1.00000000    2.84999990
   14.06222248   96.63770294    1.00000000    2.84999990
   14.06527805   95.72669983    1.00000000    2.84999990
   14.06861115   99.04399872    1.00000000    2.84999990
   14.07194424   97.23339844    1.01999998    2.84999990
   14.07499981   98.83229828    1.01999998    2.84999990
   14.07833290   98.95390320    1.01999998    2.84999990
   14.08138847  101.56900024    1.03999996    2.82999992
   14.08472157  101.42299652    1.05999994    2.84999990
   14.08916664  101.42299652    1.05999994    2.84999990
   14.09333324   97.91190338    1.07000005    2.84999990
   14.09666634  104.68399811    1.07000005    2.84999990
   14.09972191  102.90699768    1.07000005    2.86999989
   14.10305595   98.22699738    1.09000003    2.84999990
   14.10638905   96.19539642    1.09000003    2.84999990
   14.10944462   95.36239624    1.07000005    2.82999992
   14.11277771   91.98519897    1.07000005    2.82999992
   14.11611176   92.48560333    1.07000005    2.82999992
   14.11916637   94.96739960    1.07000005    2.82999992
   14.12361145   94.96739960    1.07000005    2.82999992
   14.12777805   98.37249756    1.09000003    2.84999990
   14.13111115   95.17320251    1.03999996    2.84999990
   14.13444424  101.61799622    1.05999994    2.84999990
   14.13749981   97.26660156    1.05999994    2.84999990
   14.14083290   96.74230194    1.05999994    2.84999990
   14.14388847   91.52590179    1.05999994    2.84999990
   14.14722252   93.89689636    1.05999994    2.84999990
   14.15055561   96.36509705    1.05999994    2.84999990
   14.15361118   95.19909668    1.05999994    2.84999990
   14.15833282   95.19909668    1.05999994    2.84999990
   14.16249943   94.37210083    1.01999998    2.84999990
   14.16555500  101.30699921    1.01999998    2.84999990
   14.16888905  105.26200104    1.03999996    2.84999990
   14.17194462  102.92199707    1.03999996    2.82999992
   14.17527771   99.55829620    1.05999994    2.84999990
   14.17861176   95.12729645    1.05999994    2.84999990
   14.18166733   97.76190186    1.11000001    2.86999989
   14.18500042   94.56909943    1.05999994    2.86999989
   14.18833351   97.67870331    1.05999994    2.86999989
   14.19277763   97.67870331    1.05999994    2.86999989
   14.19694424   98.53369904    1.05999994    2.86999989
   14.19999981  100.50700378    1.03999996    2.86999989
   14.20333290  101.96099854    1.03999996    2.86999989
   14.20666695   99.79389954    1.03999996    2.86999989
   14.20972157   97.69499969    0.98000002    2.84999990
   14.21305561  108.54299927    0.98000002    2.86999989
   14.21638870   99.43430328    0.98000002    2.86999989
   14.21944427  100.65299988    1.00000000    2.86999989
   14.22277737   90.32420349    0.98000002    2.84999990
   14.22722149   90.32420349    0.98000002    2.84999990
   14.23138809  107.20899963    0.98000002    2.84999990
   14.23472214   94.44120026    0.98000002    2.84999990
   14.23777771   98.29869843    1.00000000    2.84999990
   14.24111176   92.34880066    1.00000000    2.84999990
   14.24416733   98.55359650    1.00000000    2.86999989
   14.24750042   97.33979797    1.01999998    2.84999990
   14.25083351   91.99009705    1.01999998    2.84999990
   14.25388908  101.40399933    1.00000000    2.84999990
   14.25722218  104.55100250    0.98000002    2.86999989
   14.26166630  104.55100250    0.98000002    2.84999990
   14.26583290  101.74900055    1.00000000    2.86999989
   14.26916599   94.36810303    0.98000002    2.86999989
   14.27222157   94.61730194    1.00000000    2.84999990
   14.27555561   93.75740051    1.00000000    2.86999989
   14.27888870   92.41410065    0.98000002    2.84999990
   14.28194427   91.18309784    0.98000002    2.84999990
   14.28527832   95.67369843    1.00000000    2.86999989
   14.28861141   99.28859711    1.00000000    2.86999989
   14.29166698   98.18309784    1.00000000    2.86999989
   14.29638958   98.18309784    0.98000002    2.86999989
   14.30055618   92.63639832    1.00000000    2.86999989
   14.30361176  100.16200256    1.00000000    2.86999989
   14.30694485   95.88629913    1.00000000    2.86999989
   14.31000042   89.27429962    1.00000000    2.86999989
   14.31333351   93.36579895    0.98000002    2.86999989
   14.31666660  100.99900055    0.98000002    2.86999989
   14.31972218   96.26889801    0.98000002    2.86999989
   14.32305527   97.35769653    0.98000002    2.86999989
   14.32611084   98.91329956    0.98000002    2.86999989
   14.33083344   98.91329956    0.98000002    2.86999989
   14.33500004   94.14820099    0.95999998    2.86999989
   14.33805561  101.48200226    0.94000000    2.86999989
   14.34138870   96.52529907    0.92000002    2.89000010
   14.34472179   97.91110229    0.92000002    2.86999989
   14.34777737  101.60399628    0.94000000    2.86999989
   14.35111141   96.56390381    0.94000000    2.86999989
   14.35416698   98.77729797    0.92000002    2.86999989
   14.35750008   94.22699738    0.92000002    2.86999989
   14.36083412   99.03479767    0.98000002    2.86999989
   14.36527824   99.03479767    0.95999998    2.84999990
   14.36944485   94.62270355    0.95999998    2.86999989
   14.37277794   98.20099640    0.94000000    2.86999989
   14.37583351  102.34300232    0.94000000    2.86999989
   14.37916660  103.76399994    0.94000000    2.84999990
   14.38222218  103.56600189    0.94000000    2.86999989
   14.38555527  105.21600342    0.94000000    2.86999989
   14.38888836   94.44950104    0.94000000    2.86999989
   14.39194393  103.33999634    0.94000000    2.86999989
   14.39527798   99.86949921    0.94000000    2.86999989
   14.41611099   99.86949921    0.95999998    2.86999989
   14.42027855   97.83190155    0.98000002    2.86999989
   14.42361164   99.79679871    0.98000002    2.86999989
   14.42694473   96.80460358    1.00000000    2.89000010
   14.43000031   94.42150116    1.01999998    2.86999989
   14.43333340   99.13529968    1.03999996    2.86999989
   14.43638897  102.08699799    1.03999996    2.86999989
   14.43972206   94.59850311    1.01999998    2.84999990
   14.44305515   96.55079651    1.01999998    2.84999990
   14.44611073  100.99500275    1.03999996    2.86999989
   14.45055580  100.99500275    1.05999994    2.84999990
   14.45472240   96.44010162    1.05999994    2.86999989
   14.45805550   93.41570282    1.07000005    2.84999990
   14.46111107   96.27639771    1.05999994    2.86999989
   14.46444416   98.51229858    1.05999994    2.86999989
   14.46777725   95.99210358    1.03999996    2.86999989
   14.47083282   97.34629822    1.03999996    2.86999989
   14.47416592   98.26319885    1.01999998    2.86999989
   14.47749996  100.02200317    1.00000000    2.86999989
   14.48055553   94.90129852    1.00000000    2.86999989
   14.48527813   94.90129852    1.00000000    2.86999989
   14.48916721   94.89150238    1.01999998    2.86999989
   14.49250031   94.04769897    1.01999998    2.86999989
   14.49583340   92.71980286    1.01999998    2.86999989
   14.49916649   93.10739899    1.00000000    2.86999989
   14.50249958   96.53130341    1.01999998    2.89000010
   14.50555515  101.90399933    1.00000000    2.86999989
   14.50888920   95.86329651    1.00000000    2.86999989
   14.51194477   99.91280365    1.01999998    2.86999989
   14.51527786   98.79810333    1.01999998    2.86999989
   14.51972198   98.79810333    0.98000002    2.86999989
   14.52388859   89.10079956    0.98000002    2.89000010
   14.52694416   93.98359680    0.98000002    2.86999989
   14.53027725   90.78119659    0.98000002    2.86999989
   14.53361130   93.50360107    1.00000000    2.89000010
   14.53666687   95.06800079    0.98000002    2.86999989
   14.54000092   96.79620361    0.98000002    2.86999989
   14.54305553   95.85060120    0.98000002    2.86999989
   14.54638958   99.93319702    0.98000002    2.89000010
   14.54972267   95.42430115    0.95999998    2.89000010
   14.55416679   95.42430115    0.94000000    2.89000010
   14.55833340   95.65799713    0.94000000    2.89000010
   14.56138897   99.33329773    0.95999998    2.89000010
   14.56472206   91.69609833    0.95999998    2.84999990
   14.56805515   98.25640106    0.95999998    2.86999989
   14.57111073   89.57869720    0.94000000    2.86999989
   14.57444477   94.27320099    0.95999998    2.89000010
   14.57777786   95.26999664    0.95999998    2.89000010
   14.58083344   95.69490051    0.98000002    2.89000010
   14.58416653   96.02760315    1.00000000    2.89000010
   14.58861065   96.02760315    0.98000002    2.89000010
   14.59277725   97.68820190    0.98000002    2.89000010
   14.59611034   98.30390167    0.98000002    2.86999989
   14.59916592   97.47879791    0.98000002    2.86999989
   14.60249996   94.59200287    1.00000000    2.86999989
   14.60583401   94.71869659    0.98000002    2.89000010
   14.60888958   93.83609772    1.00000000    2.89000010
   14.61222267   95.91220093    0.95999998    2.86999989
   14.61527824   92.71880341    0.95999998    2.86999989
   14.61861134   98.31890106    0.94000000    2.89000010
   14.62305546   98.31890106    0.92000002    2.89000010
   14.62722206  102.22599792    0.92000002    2.89000010
   14.63055611   97.10160065    0.94000000    2.89000010
   14.63388920   94.58489990    0.95999998    2.86999989
   14.63694477   93.08540344    0.95999998    2.89000010
   14.64027786   93.95860291    0.94000000    2.89000010
   14.64333344   99.40329742    0.92000002    2.89000010
   14.64666653   95.73320007    0.92000002    2.89000010
   14.64999962   94.89530182    0.89999998    2.89000010
   14.65305519   99.81469727    0.89999998    2.89000010
   14.65777779   99.81469727    0.89999998    2.86999989
   14.66194439   95.17420197    0.92000002    2.89000010
   14.66499996   97.59739685    0.89999998    2.89000010
   14.66833401   96.49430084    0.89999998    2.89000010
   14.67138958   96.08499908    0.89999998    2.89000010
   14.67472267   90.55650330    0.89999998    2.89000010
   14.67805576   98.20410156    0.89999998    2.89000010
   14.68111134  100.00599670    0.89999998    2.89000010
   14.68444443   99.25949860    0.92000002    2.89000010
   14.68777752   99.18139648    0.92000002    2.89000010
   14.69222260   99.18139648    0.95999998    2.89000010
   14.69638920   92.48300171    0.94000000    2.89000010
   14.69944477   99.07340240    0.95999998    2.89000010
   14.70277786   97.10019684    0.95999998    2.89000010
   14.70611095   97.29360199    0.94000000    2.89000010
   14.70916653  100.72200012    0.95999998    2.91000009
   14.71249962   99.77420044    0.95999998    2.89000010
   14.71583271   97.68289948    0.95999998    2.89000010
   14.71888828  100.73799896    0.95999998    2.89000010
   14.72222137   98.95030212    0.95999998    2.89000010
   14.72666645   98.95030212    0.94000000    2.91000009
   14.73083305   96.99479675    0.94000000    2.89000010
   14.73416710   88.33799744    0.94000000    2.89000010
   14.73722267   93.77709961    0.94000000    2.89000010
   14.74055576  100.88400269    0.94000000    2.89000010
   14.74388885  101.02100372    0.92000002    2.89000010
   14.74694443   96.32170105    0.94000000    2.86999989
   14.75027752   96.16220093    0.94000000    2.89000010
   14.75333309   97.84200287    0.94000000    2.89000010
   14.75694466  102.52799988    0.94000000    2.91000009
   14.76111126  102.52799988    0.94000000    2.89000010
   14.76527786   97.84700012    0.95999998    2.86999989
   14.76861095   98.92120361    0.95999998    2.91000009
   14.77166653  103.58399963    0.94000000    2.89000010
   14.77499962  106.12799835    0.94000000    2.89000010
   14.77833271  101.51100159    0.92000002    2.89000010
   14.78138828  104.99500275    0.92000002    2.86999989
   14.78472233  102.62300110    0.92000002    2.89000010
   14.78805637  101.58799744    0.92000002    2.89000010
   14.79111195  104.78199768    0.92000002    2.89000010
   14.79583359  104.78199768    0.92000002    2.89000010
   14.79972267   99.33020020    0.94000000    2.89000010
   14.80305576  104.44499969    0.89999998    2.89000010
   14.80638885  106.36599731    0.89999998    2.89000010
   14.80944443   95.80919647    0.92000002    2.89000010
   14.81277752   96.79949951    0.92000002    2.91000009
   14.81611156  100.32900238    0.92000002    2.89000010
   14.81916618  101.03800201    0.92000002    2.89000010
   14.82250023  102.24800110    0.89999998    2.89000010
   14.82555580   99.28099823    0.89999998    2.89000010
   14.83027744   99.28099823    0.89999998    2.89000010
   14.83444405   92.58209991    0.92000002    2.89000010
   14.83749962   98.78150177    0.92000002    2.89000010
   14.84083271  101.55300140    0.92000002    2.89000010
   14.84416676   93.24539948    0.92000002    2.89000010
   14.84722233  101.09200287    0.92000002    2.89000010
   14.85055637   94.58119965    0.92000002    2.89000010
   14.85388947   97.02649689    0.92000002    2.89000010
   14.85694504  101.98500061    0.92000002    2.89000010
   14.86027813  100.37500000    0.92000002    2.89000010
   14.86472225  100.37500000    0.92000002    2.89000010
   14.86888885   99.80359650    0.92000002    2.91000009
   14.87222195  101.79100037    0.89999998    2.89000010
   14.87527752   96.36579895    0.89999998    2.89000010
   14.87861156  100.61699677    0.92000002    2.91000009
   14.88194466  104.29399872    0.89999998    2.91000009
   14.88500023  101.02999878    0.89999998    2.89000010
   14.88833332   97.61399841    0.89999998    2.89000010
   14.89166641  104.37200165    0.88000000    2.89000010
   14.89472198  100.27700043    0.88000000    2.91000009
   14.89916611  100.27700043    0.86000001    2.91000009
   14.90333271   98.01950073    0.86000001    2.91000009
   14.90666676  104.21900177    0.86000001    2.91000009
   14.90972137   93.43430328    0.88000000    2.89000010
   14.91305542   97.44090271    0.89999998    2.91000009
   14.91638851  105.35900116    0.89999998    2.89000010
   14.91944504  104.13300323    0.89999998    2.89000010
   14.92277813  103.31999969    0.89999998    2.91000009
   14.92611122  105.93499756    0.89999998    2.89000010
   14.92916679  107.57299805    0.89999998    2.89000010
   14.93388939  107.57299805    0.88000000    2.91000009
   14.93777752  100.28600311    0.88000000    2.91000009
   14.94111156  104.46199799    0.89999998    2.91000009
   14.94444466   99.22309875    0.89999998    2.91000009
   14.94750023   97.69719696    0.88000000    2.91000009
   14.95083332  101.05400085    0.88000000    2.91000009
   14.95388889   98.63649750    0.88000000    2.89000010
   14.95722198  103.37400055    0.86000001    2.91000009
   14.96055508  101.88800049    0.86000001    2.91000009
   14.96361065  101.81400299    0.86000001    2.91000009
   14.96833324  101.81400299    0.86000001    2.91000009
   14.97249985   99.51779938    0.86000001    2.91000009
   14.97555542  101.96199799    0.86000001    2.91000009
   14.97888851  102.90799713    0.86000001    2.91000009
   14.98194408  108.63899994    0.86000001    2.91000009
   14.98527813   94.83619690    0.86000001    2.91000009
   14.98861122   99.54260254    0.86000001    2.91000009
   14.99166679  104.71399689    0.86000001    2.91000009
   14.99499989   98.47599792    0.86000001    2.91000009
   14.99833393  101.12799835    0.83999997    2.91000009
   15.00277805  101.12799835    0.83999997    2.91000009
   15.00694466   99.31749725    0.83999997    2.93000007
   15.01000023  101.01200104    0.81999999    2.93000007
   15.01333332   96.29660034    0.83999997    2.91000009
   15.01666641  100.52500153    0.81999999    2.93000007
   15.01972198   97.24970245    0.83999997    2.91000009
   15.02305508   91.77089691    0.83999997    2.91000009
   15.02638817  102.63500214    0.83999997    2.91000009
   15.02944374   93.90100098    0.81999999    2.91000009
   15.03277779  105.32399750    0.83999997    2.91000009
   15.03722286  105.32399750    0.81999999    2.93000007
   15.04138947  102.88800049    0.81999999    2.91000009
   15.04472256   99.03600311    0.81999999    2.91000009
   15.04777813  101.90299988    0.81999999    2.93000007
   15.05111122   98.65070343    0.80000001    2.91000009
   15.05444431   95.73249817    0.80000001    2.94000006
   15.05749989   98.68859863    0.80000001    2.93000007
   15.06083393   92.91049957    0.80000001    2.93000007
   15.06416702   96.13559723    0.80000001    2.91000009
   15.06722260   93.92340088    0.80000001    2.93000007
   15.07166672   93.92340088    0.80000001    2.93000007
   15.07583332   98.63659668    0.80000001    2.93000007
   15.07916641  104.07399750    0.80000001    2.94000006
   15.08249950   96.42720032    0.80000001    2.93000007
   15.08583260  104.39299774    0.81999999    2.91000009
   15.08888817   98.69609833    0.80000001    2.93000007
   15.09222221   96.14730072    0.80000001    2.93000007
   15.09555531  104.54799652    0.81999999    2.91000009
   15.09861088  102.76100159    0.81999999    2.91000009
   15.10194492   98.88269806    0.81999999    2.94000006
   15.10638905   98.88269806    0.81999999    2.93000007
   15.11027813  108.69999695    0.86000001    2.94000006
   15.11361122   99.38990021    0.86000001    2.91000009
   15.11694431   98.76000214    0.83999997    2.93000007
   15.11999989  100.73500061    0.81999999    2.93000007
   15.12333393   99.23880005    0.81999999    2.93000007
   15.12666702  100.38500214    0.81999999    2.94000006
   15.12972260   99.50599670    0.81999999    2.93000007
   15.13305569   99.15650177    0.81999999    2.91000009
   15.13611126   97.78199768    0.83999997    2.91000009
   15.33722210   -1.00000000   -1.00000000   -1.00000000
   15.43027782   -1.00000000   -1.00000000   -1.00000000
   15.52916622   -1.00000000   -1.00000000   -1.00000000
   15.63277817   -1.00000000   -1.00000000   -1.00000000
   15.65861034   97.60839844    0.88000000    2.93000007
   15.66194439  101.46299744    0.92000002    2.94000006
   15.66499996  102.38600159    0.89999998    2.94000006
   15.66833401  106.37699890    0.92000002    2.94000006
   15.67138958  111.11199951    0.94000000    2.94000006
   15.67472267  105.54299927    0.95999998    2.94000006
   15.67888927  105.54299927    0.98000002    2.94000006
   15.68305588   99.42990112    1.00000000    2.94000006
   15.68611145   96.30090332    1.01999998    2.94000006
   15.68944454  104.01799774    1.01999998    2.94000006
   15.69194412   99.29470062    1.01999998    2.94000006
   15.69305515   99.79389954    1.01999998    2.94000006
   15.69638920  104.40499878    1.01999998    2.94000006
   15.69972229  103.69300079    1.03999996    2.94000006
   15.70277786   98.46389771    1.03999996    2.94000006
   15.70611095   99.32730103    1.03999996    2.94000006
   15.70916653   98.49759674    1.03999996    2.94000006
   15.71333313   98.49759674    1.03999996    2.94000006
   15.71749973   95.05490112    1.01999998    2.94000006
   15.72083282  101.53500366    1.01999998    2.94000006
   15.72388840  100.57700348    1.03999996    2.94000006
   15.72527695   99.69570160    1.03999996    2.94000006
   15.72749996  101.75599670    1.03999996    2.94000006
   15.73083305  102.63099670    1.03999996    2.93000007
   15.73416710   98.21060181    1.03999996    2.93000007
   15.73722267   99.50140381    1.03999996    2.94000006
   15.74055576   98.05899811    1.01999998    2.94000006
   15.74388885   99.61479950    1.05999994    2.94000006
   15.74805546   99.61479950    0.98000002    2.94000006
   15.75194454  103.45600128    0.95999998    2.93000007
   15.75527763  101.08599854    0.98000002    2.94000006
   15.75861073   99.85569763    0.98000002    2.94000006
   15.75888920  101.47799683    1.00000000    2.94000006
   15.76222229  100.79100037    1.01999998    2.94000006
   15.76555538  104.39700317    1.01999998    2.96000004
   15.76861095  103.02700043    1.03999996    2.94000006
   15.77194405  103.63099670    1.03999996    2.94000006
   15.77527714  100.03299713    1.01999998    2.94000006
   15.77833271  102.48699951    1.01999998    2.94000006
   15.78249931  102.48699951    1.03999996    2.93000007
   15.78666687  101.07900238    1.03999996    2.94000006
   15.79000092  102.81099701    1.03999996    2.94000006
   15.79194450   98.54589844    1.01999998    2.93000007
   15.79361153  103.74800110    1.01999998    2.93000007
   15.79666710  104.04399872    1.01999998    2.93000007
   15.80000019  100.74700165    1.03999996    2.94000006
   15.80305576   97.02490234    1.01999998    2.93000007
   15.80638885  100.83300018    1.00000000    2.93000007
   15.80972195  102.05300140    1.00000000    2.94000006
   15.81277752  101.87300110    1.00000000    2.94000006
   15.81694412  101.87300110    1.00000000    2.94000006
   15.82111073   96.02439880    1.00000000    2.94000006
   15.82444477  101.12999725    0.98000002    2.94000006
   15.82527733  102.02200317    0.98000002    2.94000006
   15.82805538   99.25469971    0.98000002    2.94000006
   15.83111095  104.76399994    1.00000000    2.94000006
   15.83444405  100.51200104    0.98000002    2.94000006
   15.83749962  106.11599731    1.00000000    2.94000006
   15.84083271  107.59300232    0.98000002    2.94000006
   15.84416676  102.26000214    1.00000000    2.93000007
   15.84722233  106.54199982    1.00000000    2.94000006
   15.85166740  106.54199982    1.00000000    2.93000007
   15.85555553  107.59799957    0.98000002    2.94000006
   15.85861111  100.69100189    0.98000002    2.94000006
   15.85944462   94.76439667    1.00000000    2.94000006
   15.86250019  104.92600250    0.98000002    2.94000006
   15.86583328  102.38300323    1.00000000    2.94000006
   15.86888885  105.52200317    0.98000002    2.94000006
   15.87222195   96.72350311    0.98000002    2.94000006
   15.87555599   99.89859772    1.00000000    2.94000006
   15.87861156  102.09500122    1.01999998    2.94000006
   15.88194466  100.88800049    1.01999998    2.94000006
   15.88611126  100.88800049    1.01999998    2.94000006
   15.89027786  103.04299927    1.01999998    2.94000006
   15.89194393  106.96399689    1.01999998    2.94000006
   15.89388847   99.61660004    1.01999998    2.94000006
   15.89694405  101.87899780    1.03999996    2.93000007
   15.90027714  104.00599670    1.05999994    2.94000006
   15.90333271  101.24800110    1.07000005    2.94000006
   15.90666676  110.02600098    1.07000005    2.94000006
   15.90999985   97.37580109    1.07000005    2.94000006
   15.91333294   97.77590179    1.05999994    2.94000006
   15.91638851   96.61109924    1.05999994    2.94000006
   15.92055607   96.61109924    1.05999994    2.94000006
   15.92472267   99.64559937    1.05999994    2.94000006
   15.92527771   99.19789886    1.05999994    2.94000006
   15.92833328  102.63600159    1.05999994    2.94000006
   15.93138885   96.73410034    1.03999996    2.94000006
   15.93472195   97.83390045    1.03999996    2.94000006
   15.93777752  103.21900177    1.03999996    2.94000006
   15.94111156   99.23780060    1.03999996    2.94000006
   15.94444466  105.87799835    1.03999996    2.96000004
   15.94750023   97.81849670    1.03999996    2.94000006
   15.95083332   97.73619843    1.03999996    2.94000006
   15.95499992   97.73619843    1.03999996    2.94000006
   15.95916653  104.28500366    1.05999994    2.93000007
   15.96249962  100.12200165    1.09000003    2.94000006
   15.96555519  104.14399719    1.11000001    2.94000006
   15.96888828  104.84400177    1.11000001    2.94000006
   15.97222137  102.00800323    1.11000001    2.94000006
   15.97527695  103.29900360    1.13000000    2.94000006
   15.97861099  106.72299957    1.13000000    2.94000006
   15.98194408  104.58799744    1.13000000    2.96000004
   15.98500061  106.05999756    1.14999998    2.94000006
   15.98972225  106.05999756    1.13000000    2.94000006
   15.99361134  102.26899719    1.13000000    2.94000006
   15.99694443  101.82299805    1.11000001    2.94000006
   16.00027847   99.31069946    1.07000005    2.94000006
   16.00333405  100.49199677    1.07000005    2.94000006
   16.00666618  101.06500244    1.05999994    2.94000006
   16.01000023   99.96739960    1.05999994    2.94000006
   16.01305580  100.20700073    1.05999994    2.94000006
   16.01638794  107.28399658    1.07000005    2.94000006
   16.01944351  100.75199890    1.07000005    2.94000006
   16.02416611  100.75199890    1.09000003    2.94000006
   16.02833366  100.23799896    1.09000003    2.94000006
   16.03138924  101.30500031    1.09000003    2.94000006
   16.03472137  105.77100372    1.09000003    2.94000006
   16.03805542  103.98699951    1.07000005    2.94000006
   16.04111099  103.52600098    1.09000003    2.94000006
   16.04444313  106.02700043    1.09000003    2.94000006
   16.04749870  103.28299713    1.09000003    2.94000006
   16.05083275  101.55799866    1.11000001    2.94000006
   16.05416679   98.80149841    1.11000001    2.94000006
   16.05861092   98.80149841    1.13000000    2.94000006
   16.06277657  100.09799957    1.14999998    2.94000006
   16.06583214  104.17199707    1.16999996    2.96000004
   16.06916809   97.75420380    1.14999998    2.96000004
   16.07250023  100.15200043    1.16999996    2.94000006
   16.07555580  101.15299988    1.16999996    2.94000006
   16.07888985  105.17900085    1.16999996    2.94000006
   16.08222389  103.40200043    1.14999998    2.96000004
   16.08527756  100.61699677    1.14999998    2.94000006
   16.08861160   97.62920380    1.14999998    2.94000006
   16.09305573   97.62920380    1.14999998    2.94000006
   16.09722328  100.04299927    1.13000000    2.96000004
   16.10055542  101.29599762    1.11000001    2.96000004
   16.10361099  102.57099915    1.09000003    2.94000006
   16.10694504  104.82399750    1.07000005    2.96000004
   16.11027908  102.17400360    1.03999996    2.96000004
   16.11333466  105.66600037    1.03999996    2.96000004
   16.11666679  101.03600311    1.03999996    2.96000004
   16.11972237  101.30200195    1.03999996    2.96000004
   16.12305641   99.90419769    1.03999996    2.96000004
   16.12777710   99.90419769    1.03999996    2.96000004
   16.13166618  102.08499908    1.05999994    2.94000006
   16.13500023  104.06199646    1.05999994    2.94000006
   16.13833237  104.78199768    1.05999994    2.94000006
   16.14138794  104.07099915    1.07000005    2.96000004
   16.14472198  102.30899811    1.07000005    2.96000004
   16.14805603  103.47899628    1.07000005    2.96000004
   16.15138817  103.22000122    1.07000005    2.96000004
   16.15472221  104.38700104    1.07000005    2.96000004
   16.15777779   97.81919861    1.09000003    2.96000004
   16.16222191   97.81919861    1.14999998    2.96000004
   16.16638756  102.81199646    1.14999998    2.96000004
   16.16944313   99.51190186    1.14999998    2.94000006
   16.17277718  101.52200317    1.16999996    2.96000004
   16.17583275   94.02649689    1.16999996    2.96000004
   16.17916679   98.51180267    1.16999996    2.96000004
   16.18249893  102.68199921    1.19000006    2.96000004
   16.18555450   99.36720276    1.23000002    2.96000004
   16.18888855  101.93399811    1.23000002    2.94000006
   16.19222069   98.95379639    1.23000002    2.96000004
   16.19666672   98.95379639    1.23000002    2.96000004
   16.20083427   97.01210022    1.23000002    2.96000004
   16.20388985   97.72910309    1.23000002    2.96000004
   16.20722389   97.36060333    1.23000002    2.94000006
   16.21055603  104.37200165    1.25000000    2.96000004
   16.21361160   99.86540222    1.23000002    2.98000002
   16.21694565   98.24870300    1.23000002    2.98000002
   16.22027779  106.04799652    1.25000000    2.96000004
   16.22333336  106.47699738    1.21000004    2.96000004
   16.22666740  100.30699921    1.21000004    2.96000004
   16.23111153  100.30699921    1.21000004    2.96000004
   16.23527718   96.85710144    1.19000006    2.98000002
   16.23861122  104.10099792    1.19000006    2.96000004
   16.24166679  104.99500275    1.16999996    2.96000004
   16.24500084   98.13030243    1.13000000    2.98000002
   16.24805641  105.10900116    1.13000000    2.98000002
   16.25138855   99.27230072    1.13000000    2.96000004
   16.25472260   98.23809814    1.14999998    2.98000002
   16.25777817  108.65899658    1.16999996    2.96000004
   16.26111031   97.28479767    1.16999996    2.96000004
   16.26555634   97.28479767    1.19000006    2.98000002
   16.26972198   96.50700378    1.19000006    2.98000002
   16.27305603   99.03659821    1.21000004    2.98000002
   16.27611160  100.68900299    1.21000004    2.96000004
   16.27944374  106.69499969    1.21000004    2.98000002
   16.28277779  101.07199860    1.21000004    2.96000004
   16.28583336   96.45989990    1.21000004    2.98000002
   16.28916550   99.55860138    1.21000004    2.98000002
   16.29249954   95.79650116    1.21000004    2.98000002
   16.29555511   98.73829651    1.21000004    2.98000002
   16.30027771   98.73829651    1.21000004    2.98000002
   16.30416679   95.44909668    1.21000004    2.98000002
   16.30749893  101.49700165    1.23000002    2.98000002
   16.31083298  100.06300354    1.23000002    2.98000002
   16.31388855  102.91799927    1.21000004    2.98000002
   16.31722260  102.21700287    1.21000004    2.98000002
   16.32055664   99.06179810    1.19000006    2.96000004
   16.32361221  102.86900330    1.19000006    2.96000004
   16.32694626   98.28230286    1.19000006    2.98000002
   16.33000183   95.67449951    1.16999996    2.98000002
   16.33472252   95.67449951    1.14999998    2.96000004
   16.33889008   96.15329742    1.16999996    2.98000002
   16.34194565   98.70159912    1.14999998    2.98000002
   16.34527779   90.09719849    1.16999996    2.98000002
   16.34861183  101.21900177    1.14999998    2.96000004
   16.35166740   99.17819977    1.14999998    2.98000002
   16.35499954   98.96299744    1.13000000    2.96000004
   16.35805511   95.37640381    1.14999998    2.96000004
   16.36138916  101.90499878    1.14999998    2.98000002
   16.36472321   99.63670349    1.14999998    2.98000002
   16.36916733   99.63670349    1.13000000    2.98000002
   16.37333298   99.90019989    1.14999998    2.98000002
   16.37666702   99.04989624    1.14999998    2.96000004
   16.37972260   99.95659637    1.14999998    2.98000002
   16.38305473  101.93800354    1.16999996    2.98000002
   16.38611031  102.69000244    1.14999998    2.98000002
   16.38944435  103.56099701    1.14999998    2.98000002
   16.39277840  101.57800293    1.14999998    2.98000002
   16.39583397   96.39379883    1.14999998    2.98000002
   16.39916611   95.38320160    1.14999998    2.96000004
   16.40361023   95.38320160    1.13000000    2.98000002
   16.40777779   96.96130371    1.13000000    2.96000004
   16.41110992  101.66899872    1.13000000    2.96000004
   16.41416550  101.45899963    1.13000000    2.98000002
   16.41749954   96.79969788    1.13000000    2.96000004
   16.42083359  103.31700134    1.13000000    2.96000004
   16.42388916   98.10440063    1.14999998    2.98000002
   16.42722130  100.86499786    1.14999998    2.96000004
   16.43055534  101.78800201    1.14999998    2.98000002
   16.43361092  104.65100098    1.16999996    2.96000004
   16.43805504  104.65100098    1.14999998    2.98000002
   16.44222069  103.81800079    1.16999996    2.98000002
   16.44555473   99.53399658    1.16999996    2.96000004
   16.44888878  103.05699921    1.16999996    2.98000002
   16.45194435   97.51000214    1.16999996    2.98000002
   16.45527840  102.66899872    1.14999998    2.96000004
   16.45833397  107.90399933    1.14999998    2.98000002
   16.46166801  105.27799988    1.16999996    2.98000002
   16.46500015   98.12509918    1.16999996    2.98000002
   16.46805573  104.68599701    1.16999996    2.98000002
   16.47277832  104.68599701    1.14999998    2.98000002
   16.47694588   92.93949890    1.07000005    2.98000002
   16.48000145  103.55899811    1.05999994    2.96000004
   16.48333359  102.99099731    1.05999994    2.98000002
   16.48638916   98.36759949    1.05999994    2.96000004
   16.48972321   94.99230194    1.03999996    2.96000004
   16.49305534  100.08000183    1.05999994    2.98000002
   16.49611092  106.96099854    1.05999994    2.98000002
   16.49944496  110.33799744    1.05999994    2.98000002
   16.50277710  103.15499878    1.05999994    2.96000004
   16.50722313  103.15499878    1.03999996    2.98000002
   16.51138878  106.45600128    1.03999996    2.98000002
   16.51444435  105.31099701    1.03999996    2.96000004
   16.51777840   99.72480011    1.03999996    2.98000002
   16.52111053  103.79399872    1.03999996    2.98000002
   16.52416611   99.45330048    1.03999996    2.98000002
   16.52750015  100.95200348    1.03999996    2.98000002
   16.53083229   99.27749634    1.03999996    2.96000004
   16.53388786   99.80529785    1.05999994    2.98000002
   16.53722191   95.74220276    1.05999994    2.98000002
   16.54166603   95.74220276    1.09000003    2.98000002
   16.54583359   95.45659637    1.13000000    2.98000002
   16.54916573   98.66200256    1.11000001    2.98000002
   16.55222130   98.63089752    1.11000001    2.98000002
   16.55555534   93.14060211    1.11000001    2.98000002
   16.55888748   90.77349854    1.14999998    2.98000002
   16.56194305   96.18460083    1.19000006    2.96000004
   16.56527710   98.44219971    1.28999996    2.98000002
   16.56833458   96.78549957    1.28999996    2.98000002
   16.57166672   95.52909851    1.28999996    2.98000002
   16.57611275   95.52909851    1.26999998    2.96000004
   16.58027840  102.83899689    1.26999998    2.98000002
   16.58361244   99.86750031    1.26999998    2.96000004
   16.58666801   99.24960327    1.28999996    2.98000002
   16.59000015   92.18240356    1.28999996    2.98000002
   16.59333420  102.06199646    1.28999996    2.96000004
   16.59638977   98.86869812    1.28999996    2.96000004
   16.59972191  104.37699890    1.28999996    2.98000002
   16.60305595   93.14140320    1.26999998    2.96000004
   16.60611153  107.08000183    1.26999998    2.96000004
   16.61083412  107.08000183    1.26999998    2.98000002
   16.61499977  100.68699646    1.26999998    2.98000002
   16.61805534  101.44799805    1.26999998    2.98000002
   16.62138939   99.08489990    1.28999996    2.98000002
   16.62444496   97.32869720    1.28999996    2.98000002
   16.62777710   97.35790253    1.26999998    2.96000004
   16.63111115   99.94689941    1.23000002    2.96000004
   16.63416672  100.38300323    1.23000002    2.96000004
   16.63750076   98.18049622    1.21000004    2.98000002
   16.64083290   93.43430328    1.21000004    2.98000002
   16.64527702   93.43430328    1.19000006    2.98000002
   16.64944458  102.58399963    1.21000004    2.98000002
   16.65250015  103.59300232    1.23000002    2.98000002
   16.65583229   97.68260193    1.21000004    2.96000004
   16.65916634  101.35700226    1.25000000    2.98000002
   16.68000031  101.35700226    1.23000002    2.98000002
   16.68416595   98.70269775    1.25000000    2.98000002
   16.68722153   99.46019745    1.26999998    2.96000004
   16.69055557   99.81800079    1.26999998    2.98000002
   16.69388771   97.50579834    1.26999998    2.98000002
   16.69694328  100.02400208    1.28999996    2.96000004
   16.70027924  100.04699707    1.28999996    2.96000004
   16.70333481   96.08280182    1.28999996    2.96000004
   16.70666695   97.65339661    1.28999996    2.96000004
   16.71000099   99.08689880    1.26999998    2.98000002
   16.71444511   99.08689880    1.19000006    2.98000002
   16.71861076  101.43599701    1.21000004    2.96000004
   16.72166634   98.20850372    1.23000002    2.96000004
   16.72500038  100.89800262    1.23000002    2.98000002
   16.72805595  103.88999939    1.23000002    2.96000004
   16.73139000   99.03130341    1.23000002    2.96000004
   16.73472214   95.86250305    1.23000002    2.98000002
   16.73777771   96.84989929    1.23000002    2.98000002
   16.74111176   89.80470276    1.25000000    2.98000002
   16.74444389  101.07700348    1.23000002    2.98000002
   16.74888992  101.07700348    1.23000002    2.96000004
   16.75305557   97.72429657    1.23000002    2.98000002
   16.75611115   99.83159637    1.23000002    2.98000002
   16.75944519   94.78330231    1.25000000    2.96000004
   16.76277733  100.37899780    1.25000000    2.98000002
   16.76583290   96.20030212    1.25000000    2.98000002
   16.76916695   99.62329865    1.26999998    2.96000004
   16.77222252   99.62969971    1.30999994    2.96000004
   16.77555466   98.26920319    1.33000004    2.96000004
   16.77888870   98.04109955    1.33000004    2.98000002
   16.78333282   98.04109955    1.33000004    2.98000002
   16.78750038   95.69339752    1.33000004    2.96000004
   16.79083252   97.28089905    1.33000004    2.98000002
   16.79388809  103.42800140    1.28999996    2.98000002
   16.79722214  105.58999634    1.26999998    2.96000004
   16.80027771  106.07900238    1.23000002    2.96000004
   16.80360985  102.58799744    1.21000004    2.96000004
   16.80694389  100.73100281    1.19000006    2.98000002
   16.80999947   97.58370209    1.19000006    2.96000004
   16.81333351   99.68319702    1.21000004    2.96000004
   16.81777954   99.68319702    1.19000006    2.96000004
   16.82194519   97.78450012    1.19000006    2.98000002
   16.82527924  101.70200348    1.19000006    2.98000002
   16.82833481  105.66600037    1.19000006    2.96000004
   16.83166695  102.82900238    1.19000006    2.98000002
   16.83500099   98.46829987    1.19000006    2.98000002
   16.83805656   97.82340240    1.19000006    2.98000002
   16.84138870  101.49500275    1.19000006    2.96000004
   16.84472275  102.26699829    1.21000004    2.98000002
   16.84777832  100.92299652    1.21000004    2.96000004
   16.85250092  100.92299652    1.23000002    2.96000004
   16.85639000   95.97740173    1.25000000    2.96000004
   16.85972214  102.08100128    1.26999998    2.96000004
   16.86305618  104.35900116    1.26999998    2.98000002
   16.86611176   93.91200256    1.26999998    2.98000002
   16.86944389   99.54429626    1.26999998    2.98000002
   16.87277794   98.14109802    1.26999998    2.98000002
   16.87583351  101.47499847    1.25000000    2.96000004
   16.87916756   98.87909698    1.25000000    2.96000004
   16.88249969  103.99800110    1.25000000    2.96000004
   16.88694382  103.99800110    1.25000000    2.98000002
   16.89111137  102.79199982    1.25000000    2.98000002
   16.89416695   97.55970001    1.25000000    2.98000002
   16.89749908   91.68769836    1.23000002    2.98000002
   16.90083313   99.82679749    1.25000000    2.98000002
   16.90388870   93.37950134    1.25000000    2.98000002
   16.90722275   94.52169800    1.25000000    2.96000004
   16.91027832  103.00800323    1.25000000    2.96000004
   16.91361046  100.87699890    1.25000000    2.96000004
   16.91694450  102.74800110    1.25000000    2.96000004
   16.92138863  102.74800110    1.25000000    2.98000002
   16.92555428  100.41300201    1.25000000    2.98000002
   16.92888832  100.40899658    1.25000000    2.96000004
   16.93194389  106.97799683    1.25000000    2.96000004
   16.93527603  102.84100342    1.21000004    2.96000004
   16.93833160   96.82479858    1.19000006    2.96000004
   16.94166565  102.03099823    1.19000006    2.96000004
   16.94499969  100.00499725    1.14999998    2.96000004
   16.94805527  102.01999664    1.13000000    2.98000002
   16.95138931  103.30699921    1.11000001    2.96000004
   16.95583344  103.30699921    1.09000003    2.96000004
   16.96000099   99.45120239    1.05999994    2.98000002
   16.96333504  103.78700256    1.05999994    2.96000004
   16.96638870  105.14700317    1.03999996    2.96000004
   16.96972275  100.83300018    1.03999996    2.96000004
   16.97305679  101.61000061    1.00000000    2.98000002
   16.97611237  101.91799927    0.98000002    2.98000002
   16.97944450   98.64700317    0.94000000    2.98000002
   16.98250008  103.68499756    0.94000000    2.98000002
   16.98583412  103.18800354    0.94000000    2.96000004
   16.99027824  103.18800354    0.94000000    2.98000002
   16.99444389  106.85700226    0.94000000    2.98000002
   16.99777794   99.68990326    0.94000000    2.98000002
   17.00111198   99.15100098    0.94000000    2.98000002
   17.00416756   96.81539917    0.95999998    2.98000002
   17.00749969  107.37999725    0.95999998    2.98000002
   17.01055527  105.43000031    0.98000002    2.98000002
   17.01388931  102.78099823    0.98000002    2.98000002
   17.01722145  106.31099701    1.01999998    2.98000002
   17.02027702   99.40299988    1.03999996    2.98000002
   17.02499962   99.40299988    1.09000003    2.96000004
   17.02916718  103.16300201    1.09000003    2.98000002
   17.03222275  103.46299744    1.09000003    2.96000004
   17.03555489  101.75700378    1.09000003    2.98000002
   17.03861046  106.50700378    1.07000005    2.96000004
   17.04194450  103.53600311    1.07000005    2.98000002
   17.04527664  108.24500275    1.07000005    2.98000002
   17.04833221  102.66500092    1.07000005    2.98000002
   17.05166626   99.33910370    1.07000005    2.96000004
   17.05499840  104.79599762    1.05999994    2.96000004
   17.05944443  104.79599762    1.05999994    2.96000004
   17.06361008   98.72959900    1.05999994    2.96000004
   17.06666756   99.02929688    1.05999994    2.96000004
   17.07000160   99.20420074    1.07000005    2.96000004
   17.07333374   99.97460175    1.07000005    2.96000004
   17.07638931   95.65419769    1.09000003    2.96000004
   17.07972336  101.78199768    1.11000001    2.96000004
   17.08305550   94.24320221    1.13000000    2.96000004
   17.08611107   97.27349854    1.13000000    2.98000002
   17.08944511   96.18029785    1.13000000    2.98000002
   17.09388924   96.18029785    1.14999998    2.98000002
   17.09805679   99.01210022    1.16999996    2.98000002
   17.10138893   94.28209686    1.19000006    2.98000002
   17.10444450   96.12310028    1.21000004    2.96000004
   17.10777855   99.99109650    1.23000002    2.98000002
   17.11111069  104.15399933    1.23000002    2.98000002
   17.11416626   94.94920349    1.26999998    2.98000002
   17.11750031  103.30899811    1.26999998    2.98000002
   17.12055588  105.56199646    1.26999998    2.98000002
   17.12388992  100.44599915    1.26999998    2.96000004
   17.12833405  100.44599915    1.25000000    2.98000002
   17.13249969  101.75900269    1.26999998    2.98000002
   17.13583374  105.79199982    1.33000004    2.98000002
   17.13888931  112.05000305    1.33000004    2.98000002
   17.14249992  104.67600250    1.33000004    2.96000004
   17.14555550  107.40000153    1.30999994    2.96000004
   17.14888954  107.87300110    1.33000004    2.98000002
   17.15222168  101.32700348    1.33000004    2.98000002
   17.15527725   99.77110291    1.34000003    2.98000002
   17.15861130  108.28299713    1.36000001    3.00000000
   17.16305542  108.28299713    1.36000001    2.98000002
   17.16694450   98.71970367    1.38000000    2.98000002
   17.17027664  102.19499969    1.39999998    3.00000000
   17.17361069   98.81469727    1.38000000    2.98000002
   17.17666626  106.01799774    1.44000006    2.98000002
   17.18000031  108.82700348    1.46000004    2.98000002
   17.18333244  111.96299744    1.46000004    2.98000002
   17.18638802  102.77400208    1.46000004    2.98000002
   17.18972206   99.98699951    1.50000000    2.98000002
   17.19277763  101.47299957    1.50000000    3.00000000
   17.19749832  101.47299957    1.51999998    2.98000002
   17.20166779  104.94899750    1.51999998    2.98000002
   17.20472336  106.26499939    1.48000002    2.98000002
   17.20805550  102.10299683    1.51999998    2.98000002
   17.21138954  104.10900116    1.51999998    2.98000002
   17.21444511  113.43800354    1.50000000    2.98000002
   17.21777916  108.34999847    1.50000000    2.98000002
   17.22111130  102.65299988    1.50000000    2.98000002
   17.22416687  102.06900024    1.50000000    2.98000002
   17.22750092  106.86499786    1.51999998    2.98000002
   17.23194504  106.86499786    1.50000000    2.98000002
   17.23611069  106.67299652    1.48000002    2.98000002
   17.23944473  105.03600311    1.48000002    2.98000002
   17.24250031   95.94090271    1.50000000    2.98000002
   17.24583435  109.51300049    1.48000002    2.98000002
   17.24888992  100.14399719    1.46000004    2.98000002
   17.25222206  106.10199738    1.46000004    2.98000002
   17.25555611  100.26000214    1.46000004    2.98000002
   17.25861168  104.93499756    1.48000002    3.00000000
   17.26194382  102.59999847    1.48000002    2.98000002
   17.26638794  102.59999847    1.48000002    3.00000000
   17.27055550  100.50299835    1.48000002    3.00000000
   17.27388954  106.56600189    1.48000002    2.98000002
   17.27694511  105.55100250    1.48000002    2.98000002
   17.28027725  105.03800201    1.48000002    2.98000002
   17.28361130  111.10099792    1.48000002    2.98000002
   17.28666687  104.06800079    1.48000002    2.96000004
   17.28999901   95.99009705    1.46000004    2.98000002
   17.29333305   97.81439972    1.50000000    2.98000002
   17.29638863  100.68399811    1.48000002    3.00000000
   17.30111122  100.68399811    1.48000002    2.98000002
   17.30499840  101.32900238    1.48000002    2.98000002
   17.30833244  101.18099976    1.50000000    2.98000002
   17.31166649  105.49099731    1.50000000    2.98000002
   17.31472206   99.63469696    1.50000000    2.98000002
   17.31805611  105.33499908    1.50000000    2.98000002
   17.32139015   95.81259918    1.50000000    2.98000002
   17.32444572  102.90299988    1.51999998    3.00000000
   17.32777786  109.26799774    1.55999994    2.98000002
   17.33111191  122.11699677    1.55999994    2.98000002
   17.33555603  122.11699677    1.58000004    3.00000000
   17.33972359  108.96700287    1.55999994    2.98000002
   17.34277916  102.76699829    1.55999994    2.98000002
   17.34611130  107.54100037    1.55999994    2.98000002
   17.34944534  109.79599762    1.55999994    2.98000002
   17.35250092  101.78600311    1.55999994    3.00000000
   17.35583305  103.86100006    1.55999994    2.98000002
   17.35888863  100.28199768    1.55999994    2.98000002
   17.36222267  104.07599640    1.58000004    3.00000000
   17.36555672  104.00900269    1.58000004    3.00000000
   17.37000084  104.00900269    1.55999994    2.96000004
   17.37416649  105.90299988    1.55999994    2.98000002
   17.37722206  105.16799927    1.55999994    2.98000002
   17.38055611  101.87799835    1.55999994    2.98000002
   17.38388824  104.37799835    1.58000004    2.98000002
   17.38694382  102.40100098    1.58000004    2.98000002
   17.39027786  100.65200043    1.58000004    2.98000002
   17.39361191  111.29499817    1.58000004    2.98000002
   17.39666748   99.75180054    1.60000002    2.98000002
   17.39999962  101.66899872    1.61000001    2.98000002
   17.40444374  101.66899872    1.60000002    2.98000002
   17.40861130  107.61199951    1.60000002    2.98000002
   17.41194344  106.80599976    1.58000004    3.00000000
   17.41499901  108.73100281    1.58000004    3.00000000
   17.41833305  102.20099640    1.58000004    3.00000000
   17.42166519  101.48500061    1.60000002    2.98000002
   17.42472076  106.13500214    1.63000000    3.00000000
   17.42805481  105.16200256    1.66999996    2.98000002
   17.43111038  103.06900024    1.66999996    2.98000002
   17.43444443   98.06500244    1.64999998    2.98000002
   17.43888855   98.06500244    1.64999998    2.98000002
   17.44305420  100.83000183    1.64999998    3.00000000
   17.44638824  100.12999725    1.60000002    3.00000000
   17.44972038  101.69499969    1.60000002    3.00000000
   17.45277786  104.47599792    1.61000001    3.00000000
   17.45611191  101.71099854    1.63000000    2.98000002
   17.45944595  103.35299683    1.63000000    2.98000002
   17.46250153   99.33280182    1.63000000    2.98000002
   17.46583366  103.21600342    1.63000000    3.00000000
   17.46888924   99.40270233    1.61000001    3.00000000
   17.47361183   99.40270233    1.60000002    3.00000000
   17.47777748  100.92700195    1.55999994    2.98000002
   17.48083305  103.89399719    1.60000002    2.98000002
   17.48416710  103.25700378    1.60000002    2.98000002
   17.48722267   99.53859711    1.60000002    2.98000002
   17.49055672   98.27839661    1.61000001    2.98000002
   17.49388885  103.79399872    1.61000001    2.98000002
   17.49694443  103.84899902    1.58000004    3.00000000
   17.50027847  102.96700287    1.48000002    3.00000000
   17.50361061  102.60700226    1.46000004    2.98000002
   17.50805473  102.60700226    1.48000002    3.00000000
   17.51222229  104.28600311    1.46000004    2.98000002
   17.51527786  101.40899658    1.48000002    2.98000002
   17.51861000   99.37870026    1.48000002    3.00000000
   17.52194405  100.58699799    1.46000004    3.00000000
   17.52499962  105.58499908    1.44000006    2.98000002
   17.52833366  101.10900116    1.46000004    3.00000000
   17.53138924  103.43299866    1.46000004    3.00000000
   17.53472137  104.04699707    1.44000006    3.00000000
   17.53805542  100.13200378    1.41999996    2.98000002
   17.54249954  100.13200378    1.41999996    2.98000002
   17.54666710  103.33300018    1.41999996    2.98000002
   17.54999924   95.47419739    1.44000006    2.98000002
   17.55305481  102.74600220    1.44000006    3.00000000
   17.55638885  102.33599854    1.46000004    3.00000000
   17.55944443  103.60700226    1.48000002    3.00000000
   17.56277657  110.92299652    1.50000000    3.00000000
   17.56611061  100.45200348    1.50000000    2.98000002
   17.56916809  106.22899628    1.50000000    2.98000002
   17.57250023  105.61000061    1.50000000    3.00000000
   17.57694626  105.61000061    1.50000000    3.00000000
   17.58111191  106.32599640    1.51999998    2.98000002
   17.58444595  109.37200165    1.51999998    3.00000000
   17.58750153  101.82900238    1.51999998    3.00000000
   17.59083366  103.46700287    1.50000000    2.98000002
   17.59416771  101.04799652    1.50000000    2.98000002
   17.59722328  101.87200165    1.48000002    3.00000000
   17.60055542  102.20899963    1.41999996    3.00000000
   17.60388947  101.03700256    1.38000000    3.00000000
   17.60694504  103.60399628    1.46000004    2.98000002
   17.61166763  103.60399628    1.48000002    2.98000002
   17.61555672  103.87999725    1.50000000    3.00000000
   17.61888885  106.28700256    1.51999998    2.98000002
   17.62222290  107.98600006    1.51999998    2.98000002
   17.62527847  104.05500031    1.51999998    2.98000002
   17.62861061  105.79699707    1.51999998    3.00000000
   17.63194466  102.95500183    1.50000000    3.00000000
   17.63500023   98.81109619    1.50000000    2.98000002
   17.63833237  105.63500214    1.51999998    2.98000002
   17.64166641  104.94499969    1.53999996    2.98000002
   17.64611053  104.94499969    1.53999996    3.00000000
   17.65027809  104.02400208    1.55999994    2.98000002
   17.65333366  106.01899719    1.55999994    2.98000002
   17.65666580  108.43099976    1.55999994    2.98000002
   17.65999985  107.05999756    1.58000004    3.00000000
   17.66305542  108.79799652    1.60000002    3.00000000
   17.66638756  104.96099854    1.60000002    3.00000000
   17.66944313  104.50399780    1.60000002    3.00000000
   17.67277718  106.21399689    1.60000002    3.00000000
   17.67611122  106.93000031    1.60000002    3.00000000
   17.69666672  106.93000031    1.71000004    3.00000000
   17.70083427  107.88099670    1.73000002    2.98000002
   17.70388985  103.40399933    1.73000002    2.98000002
   17.70722389   99.19010162    1.75000000    3.00000000
   17.71055603  105.33799744    1.76999998    3.00000000
   17.71361160   96.44629669    1.76999998    2.98000002
   17.71694565   96.38189697    1.69000006    3.00000000
   17.72027779  100.15699768    1.69000006    3.00000000
   17.72333336  102.05599976    1.69000006    3.00000000
   17.72666740  106.37999725    1.69000006    3.00000000
   17.73111153  106.37999725    1.69000006    3.00000000
   17.73527718  104.95300293    1.78999996    2.98000002
   17.73833275   98.58869934    1.94000006    3.00000000
   17.74166679  103.00299835    1.88000000    2.98000002
   17.74500084  104.18299866    1.88000000    3.00000000
   17.74805641  104.87999725    1.88000000    3.00000000
   17.75138855  101.80300140    1.86000001    2.98000002
   17.75444412  103.99400330    1.85000002    2.98000002
   17.75777817  104.14199829    1.85000002    2.98000002
   17.76111031  105.62500000    1.83000004    2.98000002
   17.76555634  105.62500000    1.75000000    3.00000000
   17.76972198  103.41999817    1.75000000    3.00000000
   17.77305603  102.20600128    1.78999996    2.98000002
   17.77611160  106.41500092    1.80999994    3.00000000
   17.77944374  101.68599701    1.78999996    2.98000002
   17.78249931  106.94699860    1.78999996    3.00000000
   17.78583336  102.95999908    1.78999996    3.00000000
   17.78916550  108.26899719    1.75000000    3.00000000
   17.79222107  108.49299622    1.75000000    2.98000002
   17.79555511  104.22899628    1.73000002    3.00000000
   17.79999924  104.22899628    1.71000004    3.00000000
   17.80416679  102.46600342    1.71000004    3.00000000
   17.80749893  106.24600220    1.69000006    3.00000000
   17.81055450  102.64700317    1.69000006    2.98000002
   17.81388855  106.12400055    1.69000006    3.00000000
   17.81722260  104.72100067    1.69000006    3.00000000
   17.82027817  103.95099640    1.71000004    3.00000000
   17.82361221  103.41999817    1.75000000    3.00000000
   17.82694626  100.07199860    1.76999998    2.98000002
   17.83000183  107.74500275    1.75000000    3.00000000
   17.83444595  107.74500275    1.73000002    2.98000002
   17.83861160  109.19899750    1.71000004    2.98000002
   17.84194565  111.44000244    1.71000004    2.98000002
   17.84527779  108.20099640    1.78999996    2.98000002
   17.84833336  106.65499878    1.80999994    2.98000002
   17.85166740  110.95200348    1.78999996    2.98000002
   17.85499954  102.63200378    1.78999996    3.00000000
   17.85805511   99.63379669    1.80999994    3.00000000
   17.86138916  103.02899933    1.80999994    3.00000000
   17.86444473  104.21399689    1.80999994    2.98000002
   17.86916733  104.21399689    1.83000004    2.98000002
   17.87333298  107.75800323    1.85000002    3.00000000
   17.87638855   98.85639954    1.83000004    2.98000002
   17.87972260  104.94499969    1.83000004    2.98000002
   17.88277817  109.43900299    1.83000004    3.00000000
   17.88611031  112.61000061    1.83000004    3.00000000
   17.88944435  106.81600189    1.80999994    3.00000000
   17.89249992  105.13200378    1.80999994    3.00000000
   17.89583397  104.78299713    1.80999994    2.98000002
   17.89916611  109.01200104    1.83000004    3.00000000
   17.90361023  109.01200104    1.83000004    3.00000000
   17.90777779   99.80180359    1.80999994    2.98000002
   17.91083336  105.45200348    1.80999994    3.00000000
   17.91416550   99.19629669    1.80999994    3.00000000
   17.91749954  101.54599762    1.64999998    3.01999998
   17.92055511   97.53520203    1.61000001    2.98000002
   17.92388916  102.92500305    1.66999996    3.00000000
   17.92722130   97.93720245    1.75000000    3.00000000
   17.93027687  100.00700378    1.63000000    3.00000000
   17.93361092  106.77799988    1.61000001    3.00000000
   17.93805504  106.77799988    1.61000001    3.00000000
   17.94222069  104.78099823    1.61000001    3.00000000
   17.94555473  109.26000214    1.69000006    3.00000000
   17.94861031  103.72599792    1.63000000    3.00000000
   17.95194435  100.11499786    1.63000000    3.00000000
   17.95527840  104.18800354    1.63000000    3.00000000
   17.95833397  103.20500183    1.63000000    3.00000000
   17.96166801  101.02700043    1.63000000    3.00000000
   17.96472359  102.37899780    1.63000000    3.00000000
   17.96805573  104.40299988    1.63000000    3.01999998
   17.97249985  104.40299988    1.61000001    3.00000000
   17.97666740  103.79900360    1.61000001    3.00000000
   17.98000145  102.06600189    1.63000000    2.98000002
   17.98333359  111.79499817    1.63000000    3.00000000
   17.98638916  108.54699707    1.63000000    3.00000000
   17.98972321  100.75499725    1.63000000    3.00000000
   17.99305534  103.82700348    1.60000002    3.00000000
   17.99611092  106.38999939    1.58000004    3.00000000
   17.99944496  106.54100037    1.50000000    3.00000000
   18.00277710  106.59799957    1.51999998    3.00000000
   18.00722313  106.59799957    1.53999996    3.00000000
   18.01111031  113.26799774    1.51999998    3.00000000
   18.01444435  107.35199738    1.51999998    2.98000002
   18.01777840  104.55799866    1.51999998    3.00000000
   18.02083397  101.07499695    1.53999996    3.01999998
   18.02416611   98.72709656    1.55999994    3.01999998
   18.02750015   99.35320282    1.61000001    3.00000000
   18.03055573  104.92299652    1.66999996    3.00000000
   18.03388786  112.41100311    1.71000004    3.00000000
   18.03694344   98.55200195    1.71000004    3.00000000
   18.04166603   98.55200195    1.71000004    3.00000000
   18.04583359  102.70099640    1.69000006    2.98000002
   18.04888916  105.10399628    1.69000006    2.98000002
   18.05222130  108.54000092    1.61000001    2.98000002
   18.05555534  104.50099945    1.60000002    2.98000002
   18.05861092  105.81300354    1.60000002    3.00000000
   18.06194305   98.26570129    1.60000002    3.00000000
   18.06527710  105.95200348    1.60000002    3.00000000
   18.06833458  102.47799683    1.61000001    3.00000000
   18.07166672  107.15699768    1.63000000    3.00000000
   18.07611275  107.15699768    1.63000000    2.98000002
   18.08027840  106.50399780    1.63000000    3.00000000
   18.08361244  102.35199738    1.63000000    2.98000002
   18.08666801  102.54900360    1.64999998    3.00000000
   18.09000015  104.32800293    1.61000001    2.98000002
   18.09305573   98.99590302    1.61000001    3.00000000
   18.09638977  107.32499695    1.63000000    3.00000000
   18.09972191  107.22299957    1.61000001    3.00000000
   18.10277748   99.98660278    1.60000002    3.00000000
   18.10611153  104.62200165    1.55999994    3.00000000
   18.11055565  104.62200165    1.53999996    3.00000000
   18.11472321  102.32099915    1.50000000    3.00000000
   18.11805534  103.87699890    1.50000000    3.00000000
   18.12111092   98.71620178    1.51999998    3.00000000
   18.12444496   99.04100037    1.50000000    3.00000000
   18.12777710  102.71800232    1.50000000    3.00000000
   18.13083267  100.48999786    1.51999998    3.00000000
   18.13416672  105.66200256    1.53999996    3.00000000
   18.13750076  101.29100037    1.55999994    3.00000000
   18.14055634  103.56700134    1.55999994    3.00000000
   18.14500046  103.56700134    1.58000004    3.00000000
   18.14916611  101.29499817    1.58000004    3.00000000
   18.15250015  100.92299652    1.60000002    3.00000000
   18.15583229  101.22000122    1.60000002    3.00000000
   18.15888786   98.85099792    1.66999996    2.98000002
   18.16222191  104.46800232    1.64999998    3.00000000
   18.16555595  106.08799744    1.63000000    3.00000000
   18.16860962  101.39299774    1.63000000    3.00000000
   18.17194366  105.26699829    1.63000000    3.00000000
   18.17499924  109.30200195    1.63000000    3.00000000
   18.17972183  109.30200195    1.64999998    3.00000000
   18.18388748  105.87200165    1.64999998    3.01999998
   18.18694305  110.50399780    1.66999996    3.00000000
   18.19027710  103.90599823    1.71000004    2.98000002
   18.19333267  105.06700134    1.73000002    3.00000000
   18.19666672   99.04190063    1.73000002    3.00000000
   18.20000076  107.55000305    1.73000002    2.98000002
   18.20305634  111.02600098    1.73000002    3.00000000
   18.20639038  109.91100311    1.75000000    3.00000000
   18.20972252  108.94200134    1.75000000    3.00000000
   18.21416664  108.94200134    1.75000000    2.98000002
   18.21833420  105.37300110    1.75000000    2.98000002
   18.22138977  107.26000214    1.75000000    3.00000000
   18.22472191  105.72000122    1.76999998    3.00000000
   18.22805595  104.41500092    1.80999994    3.00000000
   18.23111153  103.69599915    1.80999994    3.00000000
   18.23444557  103.82499695    1.85000002    3.00000000
   18.23777771  103.26300049    1.85000002    2.98000002
   18.24083328   96.12979889    2.07999992    3.00000000
   18.24416733  101.05500031    1.98000002    3.00000000
   18.24861145  101.05500031    1.91999996    2.98000002
   18.25277710  154.78599548    1.88000000    3.00000000
   18.25611115  102.12799835    1.85000002    2.98000002
   18.25916672  102.31700134    1.85000002    2.98000002
   18.26250076  103.99700165    1.83000004    3.00000000
   18.26583290  100.74199677    1.83000004    2.98000002
   18.26888847  105.34799957    1.83000004    3.00000000
   18.27222252  106.38400269    1.83000004    2.98000002
   18.27527809  109.71099854    1.83000004    2.98000002
   18.27861023  109.25900269    1.83000004    2.98000002
   18.28305435  109.25900269    1.83000004    2.98000002
   18.28722191  110.55000305    1.83000004    2.98000002
   18.29055595  108.56800079    1.78999996    2.98000002
   18.29388809  105.36599731    1.76999998    2.98000002
   18.29694366  110.94999695    1.75000000    2.98000002
   18.30027771  102.37400055    1.75000000    2.98000002
   18.30333328  101.10199738    1.75000000    2.98000002
   18.30666542  102.83699799    1.73000002    2.98000002
   18.30999947  105.59400177    1.73000002    2.98000002
   18.31305504  103.64900208    1.78999996    2.98000002
   18.31777954  103.64900208    1.80999994    3.00000000
   18.32194519  107.66799927    1.80999994    2.98000002
   18.32500076  104.52999878    1.85000002    2.98000002
   18.32833481  105.48000336    1.85000002    2.98000002
   18.33139038  102.33300018    1.85000002    2.98000002
   18.33472252   99.06690216    1.85000002    2.98000002
   18.33805656  103.12100220    1.85000002    2.98000002
   18.34111214  104.97000122    1.88000000    2.98000002
   18.34444427  102.42500305    1.88000000    2.98000002
   18.34777832  105.43699646    1.88000000    2.98000002
   18.35222244  105.43699646    1.88000000    2.98000002
   18.35639000   95.30269623    1.88000000    2.98000002
   18.35944557  103.11100006    1.88000000    2.98000002
   18.36277771  100.77500153    1.91999996    2.98000002
   18.36611176   99.84649658    1.91999996    2.98000002
   18.36916733  100.44999695    2.00000000    2.98000002
   18.37249947   96.00270081    2.00000000    2.98000002
   18.37555504   98.61119843    2.00000000    2.98000002
   18.37888908   99.31600189    2.01999998    2.98000002
   18.38222313   97.86399841    2.01999998    2.98000002
   18.38666725   97.86399841    2.01999998    2.98000002
   18.39083290  103.06199646    2.00000000    2.98000002
   18.39388847  104.66000366    2.00000000    2.98000002
   18.39722252  100.59300232    2.01999998    2.98000002
   18.40055466  101.42400360    2.03999996    2.98000002
   18.40361023  102.45800018    2.03999996    3.00000000
   18.40694427  102.47499847    2.01999998    2.98000002
   18.41027832  103.47899628    2.01999998    2.98000002
   18.41333389  100.57199860    2.01999998    2.98000002
   18.41666603   99.48719788    2.03999996    2.98000002
   18.42111015   99.48719788    2.05999994    3.00000000
   18.42527771  104.71199799    2.07999992    2.98000002
   18.42860985  108.83200073    2.09999990    2.98000002
   18.43166542  110.19300079    2.07999992    2.98000002
   18.43499947  104.61199951    2.05999994    2.98000002
   18.43833160  104.99800110    2.03999996    2.98000002
   18.44138718  106.97000122    2.00000000    2.98000002
   18.44472122   97.62039948    1.98000002    2.98000002
   18.44777679  100.74299622    1.96000004    2.98000002
   18.45111275   97.41539764    1.96000004    2.98000002
   18.45555687   97.41539764    1.98000002    2.98000002
   18.45972252  100.43299866    1.96000004    2.98000002
   18.46305656  104.41000366    1.96000004    2.98000002
   18.46638870  104.98400116    1.94000006    2.98000002
   18.46944427   98.92769623    1.94000006    3.00000000
   18.47277832  105.63999939    1.91999996    2.98000002
   18.47611237  105.81700134    1.89999998    2.98000002
   18.47916794  102.38999939    1.89999998    2.98000002
   18.48250008  105.33599854    1.89999998    3.00000000
   18.48555565  104.10099792    1.88000000    2.98000002
   18.49027824  104.10099792    1.86000001    2.98000002
   18.49444389  100.72000122    1.83000004    2.98000002
   18.49749947  104.30799866    1.80999994    2.98000002
   18.50083351   99.22370148    1.80999994    3.00000000
   18.50416756  100.69200134    1.80999994    2.98000002
   18.50722313   99.48320007    1.76999998    2.98000002
   18.51055527  102.23600006    1.76999998    3.00000000
   18.51361084  102.53900146    1.78999996    2.98000002
   18.51694489  103.04399872    1.78999996    3.00000000
   18.52027702  103.20500183    1.76999998    2.98000002
   18.52472115  103.20500183    1.78999996    2.98000002
   18.52888870  102.31999969    1.78999996    2.98000002
   18.53222275  105.47000122    1.80999994    3.00000000
   18.53527641  111.41500092    1.83000004    3.00000000
   18.53861046  107.30400085    1.86000001    2.98000002
   18.54166603  104.08300018    1.89999998    2.98000002
   18.54500008  109.62699890    1.86000001    2.98000002
   18.54833221  105.28900146    1.83000004    2.98000002
   18.55138779  109.03600311    1.80999994    2.98000002
   18.55472183  105.26499939    1.80999994    2.98000002
   18.55916595  105.26499939    1.78999996    2.98000002
   18.56333351  101.28099823    1.80999994    2.98000002
   18.56666756  113.80500031    1.83000004    2.98000002
   18.56972313  107.11799622    1.83000004    2.98000002
   18.57305717  109.59600067    1.85000002    2.98000002
   18.57638931  108.00900269    1.85000002    2.98000002
   18.57944489   98.18260193    1.85000002    2.96000004
   18.58277893  105.55699921    1.85000002    2.98000002
   18.58611107  101.78700256    1.83000004    2.98000002
   18.58916664  104.64900208    1.83000004    2.98000002
   18.59361267  104.64900208    1.83000004    2.98000002
   18.59777832  105.20999908    1.83000004    2.98000002
   18.60111237  108.50199890    1.85000002    2.96000004
   18.60444450  104.70099640    1.83000004    2.96000004
   18.60750008  100.83799744    1.83000004    2.96000004
   18.61083412  103.35500336    1.80999994    2.96000004
   18.61388969  115.31999969    1.85000002    2.98000002
   18.61722183  106.11199951    1.88000000    2.98000002
   18.62055588  102.98899841    1.86000001    2.98000002
   18.62361145  102.99099731    1.83000004    2.96000004
   18.62833405  102.99099731    1.78999996    2.96000004
   18.63222313  106.54399872    1.78999996    2.96000004
   18.63555527  107.74700165    1.71000004    2.96000004
   18.63888931  103.63899994    1.69000006    2.98000002
   18.64194489  106.39399719    1.73000002    2.96000004
   18.64527702  106.27300262    1.75000000    2.98000002
   18.64861107  102.57499695    1.75000000    2.98000002
   18.65166664  104.92099762    1.75000000    2.98000002
   18.65499878  101.06999969    1.63000000    2.98000002
   18.65805435  103.35399628    1.63000000    2.98000002
   18.66277695  103.35399628    1.63000000    2.98000002
   18.66694450  105.87999725    1.61000001    2.98000002
   18.67000008  100.63300323    1.63000000    2.96000004
   18.67333221  102.03600311    1.61000001    2.96000004
   18.67666626  110.97299957    1.58000004    2.98000002
   18.67972183  109.23000336    1.58000004    2.98000002
   18.68305397  115.70400238    1.60000002    2.98000002
   18.68610954  107.42199707    1.58000004    2.96000004
   18.68944359   99.30950165    1.55999994    2.96000004
   18.69277763  104.66100311    1.55999994    2.96000004
   18.71333504  104.66100311    1.71000004    2.96000004
   18.71750069  104.08899689    1.66999996    2.96000004
   18.72055626  101.90499878    1.64999998    2.96000004
   18.72389030  110.25000000    1.63000000    2.98000002
   18.72722244  115.69999695    1.61000001    2.98000002
   18.73027802  102.61199951    1.58000004    2.98000002
   18.73361206  106.75099945    1.60000002    2.96000004
   18.73694420  106.25199890    1.60000002    2.96000004
   18.73999977  100.64900208    1.61000001    2.96000004
   18.74333382  107.38300323    1.60000002    2.96000004
   18.74777794  107.38300323    1.51999998    2.96000004
   18.75194359  110.30799866    1.48000002    2.98000002
   18.75499916  105.55999756    1.48000002    2.96000004
   18.75833321   99.96060181    1.48000002    2.96000004
   18.76166725  113.00199890    1.48000002    2.96000004
   18.76472282  109.28199768    1.48000002    2.98000002
   18.76805496  111.88999939    1.46000004    2.96000004
   18.77138901  112.21299744    1.46000004    2.96000004
   18.77444458  106.99199677    1.44000006    2.96000004
   18.77777672  107.62200165    1.41999996    2.96000004
   18.78222275  107.62200165    1.34000003    2.96000004
   18.78638840  109.81700134    1.30999994    2.96000004
   18.78972244  109.43900299    1.21000004    2.98000002
   18.79277802  102.28800201    1.23000002    2.96000004
   18.79611015  110.15799713    1.21000004    2.96000004
   18.79916573  103.70999908    1.21000004    2.98000002
   18.80249977  102.91799927    1.19000006    2.98000002
   18.80583191  108.26799774    1.19000006    2.96000004
   18.80888748  111.47499847    1.21000004    2.96000004
   18.81222153  108.97499847    1.23000002    2.96000004
   18.81666756  108.97499847    1.19000006    2.96000004
   18.82083511  106.60900116    1.21000004    2.96000004
   18.82416725  100.84300232    1.21000004    2.96000004
   18.82722282  107.55300140    1.23000002    2.98000002
   18.83055687  104.87000275    1.23000002    2.96000004
   18.83388901  110.25800323    1.21000004    2.96000004
   18.83694458  111.64600372    1.21000004    2.96000004
   18.84027863  112.30899811    1.21000004    2.98000002
   18.84361267  112.82700348    1.21000004    2.96000004
   18.84666824  106.17099762    1.16999996    2.96000004
   18.85138893  106.17099762    1.16999996    2.98000002
   18.85527802  105.87799835    1.16999996    2.96000004
   18.85861206  104.03199768    1.16999996    2.96000004
   18.86194420  106.39800262    1.16999996    2.96000004
   18.86499977  110.21499634    1.16999996    2.96000004
   18.86833382  111.49700165    1.13000000    2.96000004
   18.87166595  112.37899780    1.11000001    2.96000004
   18.87472153  111.14499664    1.11000001    2.96000004
   18.87805557  109.77400208    1.11000001    2.96000004
   18.88111115  108.49400330    1.13000000    2.96000004
   18.88583374  108.49400330    1.14999998    2.96000004
   18.88999939  106.77799988    1.13000000    2.96000004
   18.89305496  109.43499756    1.14999998    2.96000004
   18.89638901  110.19799805    1.13000000    2.96000004
   18.89972115  108.39399719    1.14999998    2.98000002
   18.90277672  110.09500122    1.14999998    2.98000002
   18.90611076  111.75700378    1.14999998    2.96000004
   18.90916634  109.45099640    1.16999996    2.96000004
   18.91250038  113.11000061    1.14999998    2.94000006
   18.91583252  109.13500214    1.16999996    2.96000004
   18.92027664  109.13500214    1.16999996    2.96000004
   18.92444420  105.29499817    1.19000006    2.96000004
   18.92777634  108.12699890    1.23000002    2.96000004
   18.93083191  101.25800323    1.25000000    2.96000004
   18.93416595  109.13800049    1.25000000    2.96000004
   18.93750000  108.83699799    1.25000000    2.96000004
   18.94055557  107.15200043    1.25000000    2.96000004
   18.94388771  105.39499664    1.25000000    2.96000004
   18.94694328  102.73799896    1.26999998    2.96000004
   18.95027924  108.00499725    1.26999998    2.94000006
   18.95472336  108.00499725    1.28999996    2.96000004
   18.95888901  109.32299805    1.28999996    2.96000004
   18.96222305  108.29199982    1.28999996    2.96000004
   18.96527863  102.81600189    1.33000004    2.96000004
   18.96861076  106.71800232    1.33000004    2.94000006
   18.97194481  106.20600128    1.34000003    2.96000004
   18.97500038  110.46399689    1.36000001    2.94000006
   18.97833443  108.30599976    1.36000001    2.96000004
   18.98139000  105.25800323    1.36000001    2.96000004
   18.98472214  113.51100159    1.36000001    2.94000006
   18.98916626  113.51100159    1.36000001    2.96000004
   18.99333382  105.64800262    1.36000001    2.96000004
   18.99666786  106.22399902    1.36000001    2.96000004
   19.00000000  107.37799835    1.34000003    2.96000004
   19.00305557  102.98300171    1.34000003    2.94000006
   19.00638962  105.48699951    1.34000003    2.94000006
   19.00972176  111.53800201    1.36000001    2.96000004
   19.01277733  103.01200104    1.34000003    2.96000004
   19.01611137  104.14499664    1.34000003    2.96000004
   19.01916695  104.08000183    1.34000003    2.96000004
   19.02388954  104.08000183    1.33000004    2.96000004
   19.02805519  113.39399719    1.30999994    2.96000004
   19.03111076  110.92600250    1.28999996    2.98000002
   19.03444481  106.07399750    1.28999996    2.98000002
   19.03750038  103.64399719    1.26999998    2.96000004
   19.04083252  106.78299713    1.28999996    2.96000004
   19.04416656  107.35199738    1.28999996    2.96000004
   19.04722214  105.20400238    1.28999996    2.94000006
   19.05055428  108.25299835    1.33000004    2.96000004
   19.05388832  108.93099976    1.33000004    2.96000004
   19.05833244  108.93099976    1.33000004    2.96000004
   19.06250000  108.69300079    1.30999994    2.96000004
   19.06555557  103.71499634    1.33000004    2.94000006
   19.06888962  108.81400299    1.30999994    2.96000004
   19.07222366  105.16300201    1.30999994    2.96000004
   19.07527924  107.64199829    1.30999994    2.96000004
   19.07861137  108.34200287    1.30999994    2.96000004
   19.08166695  112.85700226    1.30999994    2.96000004
   19.08500099  107.01100159    1.33000004    2.96000004
   19.08833313  108.79399872    1.33000004    2.96000004
   19.09277916  108.79399872    1.34000003    2.94000006
   19.09694481  108.81199646    1.34000003    2.96000004
   19.10027885  116.65899658    1.34000003    2.94000006
   19.10333443  116.11699677    1.34000003    2.96000004
   19.10666656  110.88500214    1.36000001    2.96000004
   19.10972214  109.50099945    1.34000003    2.96000004
   19.11305618  104.70300293    1.34000003    2.94000006
   19.11638832  109.04599762    1.34000003    2.96000004
   19.11944389  111.35800171    1.30999994    2.96000004
   19.12277794  110.62599945    1.30999994    2.96000004
   19.12722206  110.62599945    1.30999994    2.94000006
   19.13138962  109.40200043    1.30999994    2.96000004
   19.13472176  114.21600342    1.28999996    2.94000006
   19.13777733  106.31400299    1.28999996    2.94000006
   19.14111137  106.21099854    1.28999996    2.94000006
   19.14444351  107.80000305    1.28999996    2.94000006
   19.14749908  101.38999939    1.28999996    2.94000006
   19.15083313  107.36599731    1.33000004    2.96000004
   19.15416718  106.51899719    1.34000003    2.94000006
   19.15722275  108.60500336    1.36000001    2.94000006
   19.16194344  108.60500336    1.36000001    2.96000004
   19.16583252  103.81900024    1.36000001    2.96000004
   19.16916656  104.61000061    1.36000001    2.94000006
   19.17249870  110.15200043    1.36000001    2.94000006
   19.17555428  105.85299683    1.38000000    2.94000006
   19.17888832  115.88800049    1.38000000    2.94000006
   19.18222237  110.91799927    1.36000001    2.94000006
   19.18527603  110.97899628    1.36000001    2.94000006
   19.18861008  106.24600220    1.36000001    2.94000006
   19.19194412  109.02799988    1.36000001    2.94000006
   19.19638824  109.02799988    1.34000003    2.96000004
   19.20055580  106.50700378    1.36000001    2.94000006
   19.20361137  107.40899658    1.34000003    2.94000006
   19.20694542  112.67700195    1.34000003    2.94000006
   19.21027946  110.84400177    1.36000001    2.94000006
   19.21333504  111.53199768    1.36000001    2.94000006
   19.21666718  105.00299835    1.36000001    2.94000006
   19.21972275  108.09300232    1.36000001    2.94000006
   19.22305679  110.25599670    1.36000001    2.94000006
   19.22638893  109.48300171    1.36000001    2.94000006
   19.23083305  109.48300171    1.38000000    2.94000006
   19.23500061  112.34300232    1.39999998    2.94000006
   19.23833275  112.19000244    1.39999998    2.94000006
   19.24138832  111.11299896    1.39999998    2.94000006
   19.24472237  110.28099823    1.41999996    2.94000006
   19.24805641  109.88400269    1.41999996    2.94000006
   19.25111198  113.78399658    1.39999998    2.94000006
   19.25444412  110.25700378    1.39999998    2.94000006
   19.25749969  110.00000000    1.39999998    2.96000004
   19.26083374  110.93000031    1.39999998    2.94000006
   19.26527786  110.93000031    1.39999998    2.94000006
   19.26944351  112.33300018    1.39999998    2.94000006
   19.27277756  110.84700012    1.39999998    2.94000006
   19.27583313  116.08100128    1.39999998    2.94000006
   19.27916718  114.94799805    1.41999996    2.94000006
   19.28249931  114.29399872    1.39999998    2.94000006
   19.28555489  111.84600067    1.39999998    2.94000006
   19.28888893  112.35399628    1.39999998    2.94000006
   19.29194450  114.10900116    1.39999998    2.94000006
   19.29527664  110.25299835    1.39999998    2.94000006
   19.29972076  110.25299835    1.41999996    2.94000006
   19.30388832  111.63500214    1.41999996    2.94000006
   19.30722237  119.73400116    1.41999996    2.94000006
   19.31055450  115.63500214    1.41999996    2.94000006
   19.31361008  112.08399963    1.41999996    2.94000006
   19.31694603  115.32700348    1.41999996    2.94000006
   19.32000160  109.25299835    1.41999996    2.94000006
   19.32333374  114.00199890    1.41999996    2.94000006
   19.32666779  106.03299713    1.41999996    2.94000006
   19.32972336  106.50000000    1.41999996    2.94000006
   19.33444595  106.50000000    1.41999996    2.94000006
   19.33861160  114.13800049    1.41999996    2.94000006
   19.34166718  112.17500305    1.39999998    2.94000006
   19.34500122  111.79900360    1.39999998    2.94000006
   19.34805679  108.68299866    1.39999998    2.94000006
   19.35138893  104.79699707    1.39999998    2.94000006
   19.35472298  104.02400208    1.39999998    2.96000004
   19.35777855  102.79000092    1.39999998    2.94000006
   19.36111069  104.24800110    1.41999996    2.94000006
   19.36444473  115.02400208    1.44000006    2.94000006
   19.36888885  115.02400208    1.46000004    2.94000006
   19.37305641  108.99299622    1.46000004    2.94000006
   19.37638855  106.21299744    1.46000004    2.94000006
   19.37972260  108.88999939    1.46000004    2.94000006
   19.38277817  114.68499756    1.50000000    2.94000006
   19.38611031  110.95800018    1.48000002    2.94000006
   19.38944435  112.76100159    1.50000000    2.94000006
   19.39249992  114.99800110    1.50000000    2.94000006
   19.39583397  108.84700012    1.50000000    2.94000006
   19.39888954  114.95200348    1.50000000    2.94000006
   19.40333366  114.95200348    1.50000000    2.94000006
   19.40749931  108.13999939    1.51999998    2.94000006
   19.41083336  106.48799896    1.51999998    2.94000006
   19.41388893  111.14199829    1.51999998    2.94000006
   19.41722107  100.78399658    1.51999998    2.94000006
   19.42027664  112.55200195    1.51999998    2.94000006
   19.42361069  103.35299683    1.51999998    2.94000006
   19.42694473  105.75099945    1.63000000    2.94000006
   19.43000031  110.65399933    1.66999996    2.94000006
   19.43333244  107.76799774    1.69000006    2.93000007
   19.43777657  107.76799774    1.75000000    2.94000006
   19.44194412  107.85099792    1.78999996    2.94000006
   19.44527626  107.05100250    1.80999994    2.94000006
   19.44833183  108.74900055    1.89999998    2.94000006
   19.45166779  104.83000183    1.96000004    2.93000007
   19.45499992  105.43399811    1.96000004    2.94000006
   19.45805550  105.28399658    1.85000002    2.94000006
   19.46138954  107.39199829    1.85000002    2.93000007
   19.46472359  106.17600250    1.86000001    2.93000007
   19.46777916  110.76699829    1.86000001    2.93000007
   19.47249985  110.76699829    1.85000002    2.93000007
   19.47638893  108.90299988    1.85000002    2.93000007
   19.47972298  112.02999878    1.86000001    2.94000006
   19.48305511  110.32800293    1.86000001    2.94000006
   19.48611069  113.99700165    1.86000001    2.93000007
   19.48944473  110.51200104    1.86000001    2.93000007
   19.49277878  111.94200134    1.85000002    2.93000007
   19.49583435  105.71199799    1.83000004    2.93000007
   19.49916649  112.08300018    1.83000004    2.94000006
   19.50222206  113.06700134    1.83000004    2.94000006
   19.50694466  113.06700134    1.83000004    2.93000007
   19.51111031  102.73999786    1.83000004    2.93000007
   19.51416588  105.29199982    1.83000004    2.93000007
   19.51749992  110.87400055    1.85000002    2.93000007
   19.52083397  105.17199707    2.01999998    2.94000006
   19.52388954  105.01899719    2.01999998    2.94000006
   19.52722168  103.32499695    2.03999996    2.94000006
   19.53055573  108.61000061    2.07999992    2.94000006
   19.53361130  101.05400085    2.05999994    2.94000006
   19.53694344  102.76899719    1.98000002    2.94000006
   19.54138756  102.76899719    2.00000000    2.93000007
   19.54555511  109.22899628    2.00000000    2.93000007
   19.54888916  108.92700195    2.09999990    2.94000006
   19.55194283  107.34600067    2.05999994    2.93000007
   19.55527687  107.72799683    2.11999989    2.93000007
   19.55833244  109.86299896    2.01999998    2.93000007
   19.56166649  105.21700287    1.96000004    2.93000007
   19.56499863  105.50099945    1.94000006    2.93000007
   19.56805611  110.01999664    1.94000006    2.93000007
   19.57139015  106.19100189    1.91999996    2.93000007
   19.57583427  106.19100189    1.94000006    2.93000007
   19.58000183  102.21800232    1.91999996    2.93000007
   19.58333397  108.11000061    1.91999996    2.94000006
   19.58638954  103.16300201    1.91999996    2.93000007
   19.58972359  108.40399933    1.91999996    2.94000006
   19.59305573  101.37100220    1.91999996    2.94000006
   19.59611130  102.00399780    2.01999998    2.94000006
   19.59944534  105.14600372    2.03999996    2.93000007
   19.60250092  103.04699707    2.09999990    2.93000007
   19.60583305  109.49900055    2.05999994    2.93000007
   19.61055565  109.49900055    2.01999998    2.93000007
   19.61444473  108.32900238    2.01999998    2.93000007
   19.61777878  106.22899628    2.01999998    2.93000007
   19.62111092  110.40200043    2.00000000    2.93000007
   19.62416649  109.06600189    2.00000000    2.93000007
   19.62750053  107.03900146    2.00000000    2.94000006
   19.63055611  112.39299774    1.98000002    2.93000007
   19.63388824  111.90100098    2.00000000    2.93000007
   19.63722229  111.10099792    1.96000004    2.93000007
   19.64027786  109.17700195    1.96000004    2.93000007
   19.64500046  109.17700195    1.94000006    2.93000007
   19.64916611  106.67700195    1.91999996    2.93000007
   19.65222168  116.25800323    1.91999996    2.93000007
   19.65555573  112.75399780    1.89999998    2.93000007
   19.65888786  110.48300171    1.91999996    2.93000007
   19.66194344  108.69200134    1.89999998    2.93000007
   19.66527748  107.82900238    1.89999998    2.93000007
   19.66833305  108.10399628    1.88000000    2.93000007
   19.67166519  109.21399689    1.89999998    2.94000006
   19.67499924  101.30799866    1.88000000    2.93000007
   19.67944336  101.30799866    1.86000001    2.94000006
   19.68361092  109.58200073    1.86000001    2.94000006
   19.68666649  113.25800323    1.86000001    2.93000007
   19.68999863  113.47499847    1.85000002    2.91000009
   19.69333267  105.55200195    1.83000004    2.93000007
   19.69638824  108.33599854    1.80999994    2.93000007
   19.69972038  104.79900360    1.78999996    2.93000007
   19.70305634  103.35500336    1.78999996    2.93000007
   19.70611191  101.96499634    1.78999996    2.93000007
   19.70944595  111.26999664    1.75000000    2.93000007
   19.73000145  111.26999664    1.71000004    2.93000007
   19.73416710  111.61399841    1.71000004    2.93000007
   19.73750114  105.36100006    1.71000004    2.93000007
   19.74055672  107.77799988    1.71000004    2.93000007
   19.74388885  114.28500366    1.71000004    2.91000009
   19.74722290  106.61699677    1.73000002    2.91000009
   19.75027847  109.03500366    1.71000004    2.93000007
   19.75361061  109.16699982    1.71000004    2.93000007
   19.75694466  106.99099731    1.69000006    2.91000009
   19.76000023  100.31700134    1.71000004    2.93000007
   19.76444435  100.31700134    1.71000004    2.93000007
   19.76861000  102.72200012    1.71000004    2.93000007
   19.77194405  108.36799622    1.71000004    2.93000007
   19.77499962  102.33399963    1.73000002    2.93000007
   19.77833366  108.94699860    1.75000000    2.94000006
   19.78166580  113.46700287    1.75000000    2.93000007
   19.78499985  105.69400024    1.76999998    2.94000006
   19.78805542  112.01100159    1.76999998    2.94000006
   19.79138756  103.51000214    1.75000000    2.93000007
   19.79472160  110.17299652    1.75000000    2.93000007
   19.79888916  110.17299652    1.66999996    2.93000007
   19.80305481  104.96900177    1.66999996    2.93000007
   19.80638885  113.32700348    1.66999996    2.93000007
   19.80944443  110.28600311    1.66999996    2.93000007
   19.81277657  106.88700104    1.64999998    2.94000006
   19.81611061  109.26200104    1.66999996    2.93000007
   19.81916809  107.82599640    1.66999996    2.93000007
   19.82250023  113.48500061    1.66999996    2.93000007
   19.82583427  105.29399872    1.69000006    2.93000007
   19.82888985  105.64499664    1.69000006    2.93000007
   19.83361244  105.64499664    1.69000006    2.93000007
   19.83750153  110.92099762    1.69000006    2.93000007
   19.84083366  108.82700348    1.69000006    2.93000007
   19.84416771  110.85299683    1.69000006    2.93000007
   19.84722328  112.06700134    1.69000006    2.93000007
   19.85055542  111.59100342    1.73000002    2.94000006
   19.85361099  110.08699799    1.75000000    2.93000007
   19.85694504  108.96499634    1.75000000    2.93000007
   19.86027908  104.64099884    1.75000000    2.93000007
   19.86333466  110.25499725    1.76999998    2.93000007
   19.86805534  110.25499725    1.78999996    2.93000007
   19.87222290  107.74900055    1.78999996    2.93000007
   19.87527847  115.21900177    1.78999996    2.93000007
   19.87861061  109.97499847    1.80999994    2.94000006
   19.88166618  109.28600311    1.80999994    2.94000006
   19.88500023  109.37000275    1.78999996    2.93000007
   19.88833237  109.55899811    1.80999994    2.93000007
   19.89138794  109.99199677    1.80999994    2.93000007
   19.89472198  112.57299805    1.80999994    2.93000007
   19.89805603  107.93499756    1.80999994    2.93000007
   19.90250015  107.93499756    1.78999996    2.93000007
   19.90666580  107.38200378    1.76999998    2.93000007
   19.90972137  110.35500336    1.78999996    2.93000007
   19.91305542  112.67700195    1.76999998    2.93000007
   19.91638756  115.72899628    1.78999996    2.93000007
   19.91944313  106.17900085    1.76999998    2.93000007
   19.92277718  115.90399933    1.78999996    2.91000009
   19.92611122  117.22499847    1.78999996    2.91000009
   19.92916679  109.50099945    1.78999996    2.93000007
   19.93249893  117.19799805    1.80999994    2.93000007
   19.93694305  117.19799805    1.83000004    2.93000007
   19.94111061  118.42700195    1.83000004    2.93000007
   19.94444275  113.57800293    1.88000000    2.93000007
   19.94749832  108.10099792    1.86000001    2.93000007
   19.95083427  106.07299805    1.86000001    2.93000007
   19.95416832  107.40799713    1.83000004    2.93000007
   19.95722389  112.03299713    1.83000004    2.93000007
   19.96055603  108.24299622    1.83000004    2.93000007
   19.96361160  104.24199677    1.83000004    2.93000007
   19.96694565  102.00099945    1.80999994    2.91000009
   19.97138977  102.00099945    1.78999996    2.93000007
   19.97555542  104.43299866    1.75000000    2.93000007
   19.97888947  105.21800232    1.75000000    2.93000007
   19.98222351  112.12899780    1.75000000    2.93000007
   19.98527718  106.22100067    1.75000000    2.93000007
   19.98861122  110.40799713    1.75000000    2.93000007
   19.99166679  109.87500000    1.75000000    2.93000007
   19.99500084  107.35900116    1.75000000    2.93000007
   19.99833298  106.76200104    1.76999998    2.93000007
   20.00138855  106.63300323    1.76999998    2.93000007
   20.00611115  106.63300323    1.76999998    2.93000007
   20.01027870  108.53500366    1.76999998    2.93000007
   20.01333427  109.15599823    1.78999996    2.93000007
   20.01666641  106.30799866    1.80999994    2.93000007
   20.01972198  114.62000275    1.80999994    2.93000007
   20.02305603  109.18900299    1.85000002    2.93000007
   20.02638817  111.23100281    1.88000000    2.93000007
   20.02944374  108.10399628    1.89999998    2.93000007
   20.03277779  111.33100128    1.94000006    2.93000007
   20.03610992  114.67099762    1.94000006    2.91000009
   20.04055595  114.67099762    1.94000006    2.93000007
   20.04472160  108.04900360    1.94000006    2.91000009
   20.04777718  112.93199921    1.94000006    2.93000007
   20.05111122  107.54699707    1.88000000    2.91000009
   20.05444336  115.05200195    1.88000000    2.93000007
   20.05749893  108.85700226    1.94000006    2.91000009
   20.06083298  108.23899841    2.07999992    2.93000007
   20.06416512  107.01000214    2.32999992    2.93000007
   20.06722260  108.98999786    2.61999989    2.91000009
   20.07055664  108.28099823    2.76999998    2.91000009
   20.07500076  108.28099823    2.89000010    2.91000009
   20.07916832  104.62500000    2.30999994    2.93000007
   20.08250046  107.56300354    2.15000010    2.91000009
   20.08555603  111.73400116    2.15000010    2.91000009
   20.08889008  109.97899628    2.07999992    2.91000009
   20.09194565  115.02899933    2.09999990    2.91000009
   20.09527779  112.85600281    2.11999989    2.91000009
   20.09861183  112.50199890    2.07999992    2.91000009
   20.10166740  110.72399902    2.07999992    2.91000009
   20.10499954  114.40699768    2.07999992    2.91000009
   20.10944557  114.40699768    2.05999994    2.91000009
   20.11361122  109.39600372    2.05999994    2.91000009
   20.11694527  120.86000061    2.01999998    2.91000009
   20.12000084  114.08599854    2.01999998    2.91000009
   20.12333298  114.70800018    2.03999996    2.91000009
   20.12666702  116.15499878    2.03999996    2.91000009
   20.12972260  103.87000275    2.01999998    2.91000009
   20.13305473  106.66999817    2.05999994    2.91000009
   20.13638878  104.04100037    2.05999994    2.91000009
   20.13944435  108.25700378    2.09999990    2.91000009
   20.14416695  108.25700378    2.07999992    2.91000009
   20.14805603  107.01699829    2.11999989    2.91000009
   20.15138817  106.96700287    2.09999990    2.91000009
   20.15472221  104.15200043    2.05999994    2.91000009
   20.15777779  113.74400330    2.05999994    2.91000009
   20.16110992  113.39299774    2.07999992    2.91000009
   20.16444397  112.33999634    2.07999992    2.91000009
   20.16749954  113.86399841    2.05999994    2.91000009
   20.17083359  107.53500366    2.05999994    2.89000010
   20.17388916  110.83000183    2.03999996    2.91000009
   20.17860985  110.83000183    2.03999996    2.91000009
   20.18277740  107.15899658    2.03999996    2.91000009
   20.18583298  104.70300293    2.03999996    2.91000009
   20.18916512  103.37799835    2.03999996    2.91000009
   20.19249916  104.51899719    2.05999994    2.91000009
   20.19555473  105.46199799    2.17000008    2.91000009
   20.19888878  109.56600189    2.11999989    2.91000009
   20.20194435  108.25199890    2.09999990    2.91000009
   20.20527840  110.28099823    2.05999994    2.91000009
   20.20861244  107.32199860    2.05999994    2.91000009
   20.21305656  107.32199860    2.03999996    2.91000009
   20.21722221  107.72100067    2.03999996    2.91000009
   20.22027779  106.37999725    2.01999998    2.91000009
   20.22361183  105.56600189    2.01999998    2.89000010
   20.22694588  104.12000275    2.01999998    2.91000009
   20.23000145  110.52899933    2.03999996    2.91000009
   20.23333359  105.36599731    2.03999996    2.91000009
   20.23666763  101.39299774    2.05999994    2.91000009
   20.23972321  104.67099762    2.05999994    2.89000010
   20.24305534  101.06900024    2.07999992    2.91000009
   20.24749947  101.06900024    2.07999992    2.91000009
   20.25166702  115.98000336    2.11999989    2.91000009
   20.25499916  106.68399811    2.15000010    2.89000010
   20.25805473  112.95899963    2.17000008    2.91000009
   20.26138878  119.25099945    2.17000008    2.91000009
   20.26472282  107.30799866    2.13000011    2.91000009
   20.26777840  112.55200195    2.11999989    2.89000010
   20.27111053  109.00499725    2.09999990    2.91000009
   20.27416611  106.38200378    2.09999990    2.91000009
   20.27750015  115.10399628    2.09999990    2.91000009
   20.28194427  115.10399628    2.07999992    2.91000009
   20.28610992  107.01599884    2.07999992    2.91000009
   20.28944397  111.09500122    2.07999992    2.91000009
   20.29277802  105.95700073    2.07999992    2.89000010
   20.29583359  104.25800323    2.07999992    2.89000010
   20.29916573  107.92900085    2.07999992    2.89000010
   20.30249977  113.38500214    2.05999994    2.91000009
   20.30555534  107.33999634    2.05999994    2.89000010
   20.30888748  107.65100098    2.07999992    2.89000010
   20.31194305  111.15899658    2.09999990    2.89000010
   20.31666756  111.15899658    2.09999990    2.89000010
   20.32083511  111.68800354    2.11999989    2.89000010
   20.32389069  113.21399689    2.09999990    2.91000009
   20.32722282  106.77500153    2.07999992    2.89000010
   20.33027840  108.83399963    2.07999992    2.91000009
   20.33361244  113.08999634    2.05999994    2.91000009
   20.33694458  107.74900055    2.03999996    2.91000009
   20.34000015  113.06500244    2.05999994    2.89000010
   20.34333420  106.67099762    2.03999996    2.91000009
   20.34666824  107.33300018    2.07999992    2.89000010
   20.35111237  107.33300018    2.05999994    2.89000010
   20.35527802  107.28800201    2.15000010    2.89000010
   20.35833359  110.71499634    2.05999994    2.89000010
   20.36166763  115.72000122    2.01999998    2.91000009
   20.36499977  115.51799774    2.00000000    2.89000010
   20.36805534  109.43399811    1.98000002    2.91000009
   20.37138939  113.26899719    1.98000002    2.89000010
   20.37472153  114.35600281    1.98000002    2.89000010
   20.37777710  109.24400330    2.00000000    2.89000010
   20.38111115  111.34500122    2.00000000    2.89000010
   20.38555527  111.34500122    2.01999998    2.89000010
   20.38972282  108.83999634    2.00000000    2.89000010
   20.39305496  107.89800262    2.00000000    2.89000010
   20.39611053  110.21399689    2.00000000    2.89000010
   20.39944458  114.51799774    2.01999998    2.89000010
   20.40250015  110.97599792    2.00000000    2.89000010
   20.40583229  107.43699646    1.98000002    2.89000010
   20.40916634  108.33899689    1.96000004    2.86999989
   20.41222191  108.85800171    1.94000006    2.89000010
   20.41555595  107.06600189    1.94000006    2.89000010
   20.42000008  107.06600189    1.91999996    2.89000010
   20.42416573  108.75199890    1.96000004    2.89000010
   20.42749977  110.99800110    1.96000004    2.91000009
   20.43055534  111.41699982    1.94000006    2.89000010
   20.43388748  109.94599915    1.94000006    2.89000010
   20.43722153  113.36299896    1.94000006    2.91000009
   20.44027710  114.53299713    1.89999998    2.89000010
   20.44361115  113.74900055    1.89999998    2.89000010
   20.44694328  114.52100372    1.91999996    2.89000010
   20.45000076  113.90200043    1.94000006    2.89000010
   20.45472336  113.90200043    1.94000006    2.89000010
   20.45861244  108.80699921    1.91999996    2.89000010
   20.46194458  106.16000366    1.91999996    2.89000010
   20.46527863  118.44999695    1.89999998    2.89000010
   20.46833420  112.88500214    1.89999998    2.89000010
   20.47166634  117.60800171    1.89999998    2.89000010
   20.47500038  115.27400208    1.89999998    2.89000010
   20.47805595  102.13500214    1.89999998    2.89000010
   20.48139000  112.16300201    1.91999996    2.89000010
   20.48472214  105.57099915    1.91999996    2.89000010
   20.48916626  105.57099915    1.91999996    2.89000010
   20.49333382  106.84700012    1.94000006    2.86999989
   20.49638939  104.66500092    1.94000006    2.86999989
   20.49972153  108.38999939    1.96000004    2.89000010
   20.50305557  113.13800049    1.96000004    2.89000010
   20.50611115  114.57599640    1.96000004    2.86999989
   20.50944519  110.15000153    1.98000002    2.86999989
   20.51250076  118.25800323    1.98000002    2.86999989
   20.51583290  109.36299896    1.98000002    2.86999989
   20.51916695  112.58699799    1.98000002    2.86999989
   20.52361107  112.58699799    1.98000002    2.86999989
   20.52777672  108.28399658    2.07999992    2.86999989
   20.53111076  112.25000000    2.21000004    2.84999990
   20.53416634  112.38300323    2.42000008    2.86999989
   20.53750038  113.46900177    2.13000011    2.89000010
   20.54083252  111.87899780    2.07999992    2.86999989
   20.54388809  109.81999969    2.01999998    2.86999989
   20.54722214  108.87799835    2.15000010    2.86999989
   20.55027771  115.83699799    1.94000006    2.84999990
   20.55360985  109.65200043    1.88000000    2.86999989
   20.55805397  109.65200043    1.89999998    2.86999989
   20.56222153  108.56700134    1.89999998    2.86999989
   20.56555557  111.94999695    2.03999996    2.86999989
   20.56861115  110.22200012    2.01999998    2.86999989
   20.57194519  107.78399658    2.00000000    2.86999989
   20.57527924  117.41300201    1.98000002    2.86999989
   20.57833481  113.64900208    1.98000002    2.86999989
   20.58166695  115.43499756    1.98000002    2.86999989
   20.58500099  111.55899811    1.96000004    2.86999989
   20.58805656  107.08699799    1.94000006    2.86999989
   20.59277916  107.08699799    1.88000000    2.86999989
   20.59666824  102.40000153    1.88000000    2.86999989
   20.60000038  109.52500153    1.88000000    2.86999989
   20.60333443  109.87599945    1.88000000    2.86999989
   20.60639000  112.40499878    1.86000001    2.86999989
   20.60972214  111.77400208    1.86000001    2.86999989
   20.61277771  112.54399872    1.86000001    2.86999989
   20.61611176  109.68900299    1.86000001    2.86999989
   20.61944389  111.28700256    1.85000002    2.86999989
   20.62249947  104.60500336    1.85000002    2.86999989
   20.62722206  104.60500336    1.85000002    2.86999989
   20.63138962  109.74099731    1.83000004    2.84999990
   20.63444519  110.69300079    1.80999994    2.86999989
   20.63777733  113.61100006    1.80999994    2.86999989
   20.64083290  118.63400269    1.80999994    2.86999989
   20.64416695  112.56800079    1.80999994    2.86999989
   20.64749908  118.55799866    1.80999994    2.84999990
   20.65055466  113.20700073    1.80999994    2.86999989
   20.65388870  107.88099670    1.80999994    2.86999989
   20.65722275  114.11399841    1.80999994    2.86999989
   20.66166687  114.11399841    1.80999994    2.84999990
   20.66583252  114.78600311    1.80999994    2.86999989
   20.66888809  108.95800018    1.85000002    2.84999990
   20.67222214  109.85299683    1.86000001    2.84999990
   20.67555428  107.43000031    1.86000001    2.84999990
   20.67860985  101.29100037    1.94000006    2.84999990
   20.68194389  108.18099976    2.00000000    2.84999990
   20.68527603  101.61900330    2.00000000    2.86999989
   20.68833160  108.24099731    1.98000002    2.86999989
   20.69166565  114.40599823    1.96000004    2.86999989
   20.69610977  114.40599823    1.98000002    2.84999990
   20.70027924  109.94599915    1.98000002    2.86999989
   20.70361137  119.21800232    1.98000002    2.84999990
   20.70666695  112.82399750    1.98000002    2.84999990
   20.71000099  116.76300049    1.96000004    2.84999990
   20.71333504  114.45600128    1.96000004    2.84999990
   20.71638870  107.29499817    1.96000004    2.84999990
   20.71972275  113.74400330    1.94000006    2.84999990
   20.72277832  116.22100067    1.96000004    2.84999990
   20.72611237  109.28399658    1.94000006    2.84999990
   20.74694443  109.28399658    1.98000002    2.84999990
   20.75083351  107.40299988    1.98000002    2.84999990
   20.75416756  114.41200256    1.98000002    2.84999990
   20.75749969  117.08200073    1.98000002    2.84999990
   20.76055527  125.39800262    1.98000002    2.84999990
   20.76388931  116.21700287    1.98000002    2.86999989
   20.76722145  111.48500061    1.98000002    2.84999990
   20.77027702  119.64800262    2.01999998    2.84999990
   20.77361107  119.63400269    2.01999998    2.84999990
   20.77666664  116.13200378    2.01999998    2.84999990
   20.78111076  116.13200378    2.01999998    2.84999990
   20.78527641  110.60800171    2.00000000    2.84999990
   20.78861046  109.42199707    2.00000000    2.82999992
   20.79194450  109.79699707    1.98000002    2.84999990
   20.79500008  112.70300293    1.96000004    2.84999990
   20.79833221  105.97399902    1.96000004    2.84999990
   20.80138779  109.01599884    1.98000002    2.84999990
   20.80472183  109.31600189    1.96000004    2.84999990
   20.80805397  113.95300293    1.96000004    2.84999990
   20.81110954  108.87799835    1.96000004    2.84999990
   20.81583214  108.87799835    1.94000006    2.84999990
   20.82000160  124.96900177    1.91999996    2.84999990
   20.82305717  115.23400116    1.91999996    2.84999990
   20.82638931  121.16799927    1.89999998    2.82999992
   20.82972336  110.47699738    1.88000000    2.84999990
   20.83277893  114.28299713    1.86000001    2.82999992
   20.83611107  114.07900238    1.85000002    2.84999990
   20.83944511  115.80699921    1.85000002    2.84999990
   20.84250069  116.04599762    1.83000004    2.84999990
   20.84583473  116.05699921    1.83000004    2.84999990
   20.85027885  116.05699921    1.83000004    2.84999990
   20.85444450  110.22399902    1.83000004    2.82999992
   20.85750008  111.66000366    1.83000004    2.84999990
   20.86083412  120.85500336    1.85000002    2.84999990
   20.86416626  114.62799835    1.83000004    2.82999992
   20.86722183  116.81900024    1.83000004    2.82999992
   20.87055588  123.69200134    1.80999994    2.82999992
   20.87388992  114.25900269    1.83000004    2.82999992
   20.87694550  117.49800110    1.80999994    2.82999992
   20.88027763  118.36299896    1.80999994    2.84999990
   20.88472176  118.36299896    1.80999994    2.82999992
   20.88888931  113.82299805    1.83000004    2.82999992
   20.89222145  110.60399628    1.83000004    2.82999992
   20.89527702  109.08000183    1.85000002    2.82999992
   20.89861107  110.85800171    1.85000002    2.82999992
   20.90166664  115.10299683    1.86000001    2.82999992
   20.90499878  110.70800018    1.85000002    2.82999992
   20.90833282  112.70200348    1.85000002    2.82999992
   20.91138840  104.82499695    1.85000002    2.82999992
   20.91472244  106.82700348    1.85000002    2.84999990
   20.91916656  106.82700348    1.83000004    2.82999992
   20.92333221  113.31400299    1.85000002    2.82999992
   20.92666626  112.84700012    1.85000002    2.82999992
   20.92972183  113.95500183    1.86000001    2.82999992
   20.93305397  111.30799866    1.86000001    2.82999992
   20.93638802  111.22000122    1.86000001    2.82999992
   20.93944359  112.53600311    1.86000001    2.82999992
   20.94277763  106.48400116    1.86000001    2.82999992
   20.94610977  115.26799774    1.86000001    2.82999992
   20.94916534  116.09600067    1.86000001    2.82999992
   20.95388985  116.09600067    1.86000001    2.82999992
   20.95777893  108.44100189    1.86000001    2.80999994
   20.96111107  107.71099854    1.86000001    2.82999992
   20.96444511  116.60199738    1.85000002    2.82999992
   20.96750069  110.55899811    1.83000004    2.80999994
   20.97083473  112.55999756    1.83000004    2.82999992
   20.97416687  112.02799988    1.83000004    2.82999992
   20.97722244  120.63700104    1.83000004    2.82999992
   20.98055649  109.41699982    1.80999994    2.82999992
   20.98361206  112.15499878    1.80999994    2.80999994
   20.98833275  112.15499878    1.80999994    2.82999992
   20.99250031  118.92600250    1.80999994    2.80999994
   20.99555588  111.27899933    1.80999994    2.80999994
   20.99888992  119.85399628    1.78999996    2.80999994
   21.00222206  107.38300323    1.78999996    2.80999994
   21.00527763  118.70899963    1.78999996    2.80999994
   21.00861168  115.31199646    1.78999996    2.80999994
   21.01166725  117.61199951    1.75000000    2.80999994
   21.01499939  114.91100311    1.75000000    2.82999992
   21.01833344  117.84500122    1.75000000    2.80999994
   21.02277756  117.84500122    1.76999998    2.80999994
   21.02694511  113.37699890    1.75000000    2.80999994
   21.03027725  110.91899872    1.73000002    2.80999994
   21.03333282  115.23799896    1.73000002    2.80999994
   21.03666687  108.86900330    1.73000002    2.80999994
   21.03972244  122.96900177    1.73000002    2.80999994
   21.04305458  113.50399780    1.73000002    2.80999994
   21.04638863  119.45400238    1.73000002    2.82999992
   21.04944420  115.44799805    1.73000002    2.80999994
   21.05277634  114.52400208    1.73000002    2.80999994
   21.05722237  114.52400208    1.73000002    2.80999994
   21.06138802  114.72799683    1.75000000    2.80999994
   21.06472206  112.02200317    1.75000000    2.80999994
   21.06777954  122.65899658    1.75000000    2.80999994
   21.07111168  116.61599731    1.73000002    2.80999994
   21.07444572  114.25000000    1.73000002    2.80999994
   21.07750130  113.45800018    1.73000002    2.80999994
   21.08083344  115.18900299    1.75000000    2.78999996
   21.08416748  107.29900360    1.75000000    2.80999994
   21.08722305  114.73300171    1.75000000    2.80999994
   21.09166718  114.73300171    1.75000000    2.80999994
   21.09583473  116.45400238    1.76999998    2.80999994
   21.09916687  111.07700348    1.80999994    2.80999994
   21.10250092  126.77200317    1.80999994    2.78999996
   21.10555649  114.40000153    1.80999994    2.80999994
   21.10888863  113.65299988    1.80999994    2.80999994
   21.11194420  110.90200043    1.83000004    2.80999994
   21.11527824  114.88300323    1.83000004    2.78999996
   21.11861038  111.80400085    1.83000004    2.78999996
   21.12166595  107.77700043    1.83000004    2.78999996
   21.12638855  107.77700043    1.83000004    2.78999996
   21.13055611  114.65399933    1.86000001    2.78999996
   21.13361168  117.08799744    1.86000001    2.78999996
   21.13694382  113.07599640    1.86000001    2.78999996
   21.13999939  120.67299652    1.86000001    2.78999996
   21.14333344  120.08499908    1.88000000    2.78999996
   21.14666748  118.75099945    1.89999998    2.78999996
   21.14972115  105.59600067    1.89999998    2.78999996
   21.15305519  115.74900055    1.94000006    2.78999996
   21.15638924  124.83999634    1.91999996    2.78999996
   21.16083336  124.83999634    1.96000004    2.78999996
   21.16499901  121.65100098    1.98000002    2.76999998
   21.16805458  124.06900024    1.98000002    2.78999996
   21.17138863  117.56700134    2.00000000    2.78999996
   21.17472076  120.02700043    2.03999996    2.78999996
   21.17777634  117.46800232    2.03999996    2.78999996
   21.18111038  120.50900269    2.05999994    2.76999998
   21.18444443  112.56500244    2.07999992    2.76999998
   21.18750000  109.55300140    2.09999990    2.76999998
   21.19083214  113.97599792    2.09999990    2.76999998
   21.19527626  113.97599792    2.09999990    2.76999998
   21.19944382  118.41699982    2.11999989    2.76999998
   21.20277786  113.07199860    2.11999989    2.76999998
   21.20583344  115.87300110    2.11999989    2.78999996
   21.20916748  113.75599670    2.09999990    2.76999998
   21.21250153  117.63500214    2.09999990    2.76999998
   21.21555710  123.07099915    2.11999989    2.76999998
   21.21888924  118.30899811    2.11999989    2.75000000
   21.22194481  119.33799744    2.15000010    2.76999998
   21.22527885  122.59500122    2.15000010    2.76999998
   21.22972298  122.59500122    2.17000008    2.76999998
   21.23388863  117.81199646    2.23000002    2.75000000
   21.23722267  117.71800232    2.23000002    2.76999998
   21.24027824  123.81400299    2.25000000    2.75000000
   21.24361229  120.50299835    2.25000000    2.75000000
   21.24694443  113.97799683    2.25000000    2.75000000
   21.25000000  116.70800018    2.25000000    2.75000000
   21.25333405  119.13300323    2.25000000    2.76999998
   21.25666618  113.82499695    2.26999998    2.75000000
   21.25972176  120.52600098    2.26999998    2.75000000
   21.26444435  120.52600098    2.28999996    2.75000000
   21.26833344  114.51300049    2.30999994    2.75000000
   21.27166557  118.34600067    2.30999994    2.75000000
   21.27499962  116.63700104    2.30999994    2.75000000
   21.27805519  118.58499908    2.32999992    2.75000000
   21.28138924  111.34799957    2.32999992    2.75000000
   21.28472137  113.85299683    2.34999990    2.75000000
   21.28777695  115.14700317    2.34999990    2.75000000
   21.29111099  116.08100128    2.36999989    2.75000000
   21.29416656  121.90000153    2.40000010    2.75000000
   21.29888916  121.90000153    2.44000006    2.75000000
   21.30305481  117.09400177    2.46000004    2.73000002
   21.30611038  116.05999756    2.46000004    2.75000000
   21.30944443  114.45999908    2.48000002    2.73000002
   21.31277657  115.17500305    2.50000000    2.73000002
   21.31583214  120.67900085    2.50000000    2.73000002
   21.31916809  120.86900330    2.51999998    2.75000000
   21.32222366  114.19899750    2.53999996    2.73000002
   21.32555580  116.93199921    2.55999994    2.73000002
   21.32888985  113.52899933    2.55999994    2.75000000
   21.33333397  113.52899933    2.59999990    2.73000002
   21.33750153  111.21499634    2.59999990    2.73000002
   21.34083366  110.84500122    2.59999990    2.73000002
   21.34388924  116.78299713    2.59999990    2.73000002
   21.34722328  116.01999664    2.59999990    2.73000002
   21.35027885  109.15100098    2.59999990    2.75000000
   21.35361099  119.14299774    2.59999990    2.73000002
   21.35694504  117.79000092    2.61999989    2.73000002
   21.36000061  114.96900177    2.61999989    2.73000002
   21.36333466  121.99900055    2.61999989    2.73000002
   21.36777878  121.99900055    2.64000010    2.73000002
   21.37194443  115.66300201    2.66000009    2.73000002
   21.37527847  113.38400269    4.90999985    2.82999992
   21.37833405  112.03600311    4.90999985    2.82999992
   21.38166618  114.52200317    4.90999985    2.82999992
   21.38500023  112.10099792    4.90999985    2.82999992
   21.38805580  116.75800323    4.90999985    2.82999992
   21.39138794  113.84500122    4.90999985    2.82999992
   21.39472198  118.77999878    4.90999985    2.82999992
   21.39777756  106.08300018    4.90999985    2.82999992
   21.40250015  106.08300018    4.90999985    2.82999992
   21.40638924  123.66400146    4.90999985    2.82999992
   21.40972137  105.91300201    4.90999985    2.82999992
   21.41305542  121.59799957    4.90999985    2.82999992
   21.41611099  112.06900024    4.90999985    2.82999992
   21.41944313  114.07199860    4.90999985    2.82999992
   21.42277718  121.38800049    4.90999985    2.82999992
   21.42583275  113.46600342    4.90999985    2.82999992
   21.42916679  120.25700378    4.90999985    2.82999992
   21.43222237  121.07199860    4.90999985    2.82999992
   21.43694305  121.07199860    4.90999985    2.82999992
   21.44111061  114.66300201    4.90999985    2.82999992
   21.44416618  107.78700256    4.90999985    2.82999992
   21.44749832  113.70600128    4.90999985    2.82999992
   21.45055580  123.54299927    4.90999985    2.82999992
   21.45388985  109.83699799    4.90999985    2.82999992
   21.45722389  117.07199860    4.90999985    2.82999992
   21.46027946  123.04699707    4.90999985    2.82999992
   21.46361160  113.62200165    4.90999985    2.82999992
   21.46694565  118.50299835    4.90999985    2.82999992
   21.47138977  118.50299835    4.90999985    2.82999992
   21.47555542  119.63600159    4.90999985    2.82999992
   21.47861099  113.94999695    4.90999985    2.82999992
   21.48194504  113.32700348    4.90999985    2.82999992
   21.48527718  118.61399841    4.90999985    2.82999992
   21.48833275  118.24400330    4.90999985    2.82999992
   21.49166679  113.88200378    4.90999985    2.82999992
   21.49500084  116.37100220    4.90999985    2.82999992
   21.49805641  117.40000153    4.90999985    2.82999992
   21.50138855  116.09799957    4.90999985    2.82999992
   21.50583267  116.09799957    4.90999985    2.82999992
   21.51000023  122.83399963    4.90999985    2.82999992
   21.51333427  108.29900360    4.90999985    2.82999992
   21.51638794  115.91799927    4.90999985    2.82999992
   21.51972198  120.20400238    4.90999985    2.82999992
   21.52305603  112.44000244    4.90999985    2.82999992
   21.52611160  111.24199677    4.90999985    2.82999992
   21.52944374  103.82800293    4.90999985    2.82999992
   21.53249931  115.56999969    4.90999985    2.82999992
   21.53583336  118.96600342    4.90999985    2.82999992
   21.54027748  118.96600342    4.90999985    2.82999992
   21.54444313  127.16300201    4.90999985    2.82999992
   21.54777718  126.17099762    4.90999985    2.82999992
   21.55111122  115.96099854    4.90999985    2.82999992
   21.55416679  117.85600281    4.90999985    2.82999992
   21.55749893  124.26300049    4.90999985    2.82999992
   21.56055450  117.73200226    4.90999985    2.82999992
   21.56388855  117.21800232    4.90999985    2.82999992
   21.56722260  127.52600098    4.90999985    2.82999992
   21.57027817  117.29799652    4.90999985    2.82999992
   21.57500076  117.29799652    4.90999985    2.82999992
   21.57916832  121.72000122    4.90999985    2.82999992
   21.58222389  119.83100128    4.90999985    2.82999992
   21.58555603  119.10199738    4.90999985    2.82999992
   21.58861160  121.03199768    4.90999985    2.82999992
   21.59194565  116.13500214    4.90999985    2.82999992
   21.59527779  123.72100067    4.90999985    2.82999992
   21.59833336  120.62599945    4.90999985    2.82999992
   21.60166740  117.27200317    4.90999985    2.82999992
   21.60499954  120.94000244    4.90999985    2.82999992
   21.60944557  120.94000244    4.90999985    2.82999992
   21.61361122  118.88400269    4.90999985    2.82999992
   21.61666679  119.14299774    4.90999985    2.82999992
   21.62000084  122.46900177    4.90999985    2.82999992
   21.62333298  125.06800079    4.90999985    2.82999992
   21.62638855  122.36199951    4.90999985    2.82999992
   21.62972260  120.86699677    4.90999985    2.82999992
   21.63305473  122.39099884    4.90999985    2.82999992
   21.63611031  120.83699799    4.90999985    2.82999992
   21.63944435  126.36799622    4.90999985    2.82999992
   21.64388847  126.36799622    4.90999985    2.82999992
   21.64805603  121.20899963    4.90999985    2.82999992
   21.65138817  123.50199890    4.90999985    2.82999992
   21.65444374  120.63700104    4.90999985    2.82999992
   21.65777779  122.84899902    4.90999985    2.82999992
   21.66083336  114.39600372    4.90999985    2.82999992
   21.66416550  124.12899780    4.90999985    2.82999992
   21.66749954  121.22499847    4.90999985    2.82999992
   21.67055511  126.13600159    4.90999985    2.82999992
