    HOUR (UT)   FLARE FACTOR    SKY TESTER    SUN TESTER
   11.91972256   -1.00000000   -1.00000000   -1.00000000
   14.08388901  132.29400635    4.90999985    2.61999989
   14.08722210  132.87800598    4.90999985    2.61999989
   14.09055519  132.22300720    4.90999985    2.61999989
   14.09361076  125.03500366    4.90999985    2.61999989
   14.09694386  143.72500610    4.90999985    2.61999989
   14.10000038  127.43699646    4.90999985    2.61999989
   14.10416698  127.43699646    4.90999985    2.61999989
   14.10833359  129.18099976    4.90999985    2.64000010
   14.11166668  126.08499908    4.90999985    2.61999989
   14.11472225  130.91799927    4.90999985    2.61999989
   14.11722279  128.44500732    4.90999985    2.61999989
   14.11833382  133.24899292    4.90999985    2.64000010
   14.12166691  129.48399353    4.90999985    2.64000010
   14.12472248  135.86199951    4.90999985    2.64000010
   14.12805557  134.20199585    4.90999985    2.64000010
   14.13111115  133.55099487    4.90999985    2.64000010
   14.13444424  131.19999695    4.90999985    2.64000010
   14.13749981  125.65000153    4.90999985    2.64000010
   14.14083290  127.68699646    4.90999985    2.61999989
   14.14722252  127.68699646    4.90999985    2.64000010
   14.15111065  129.37199402    4.90999985    2.64000010
   14.15444374  133.18299866    4.90999985    2.64000010
   14.15777779  141.74499512    4.90999985    2.64000010
   14.16083336  134.72300720    4.90999985    2.64000010
   14.16416645  130.44999695    4.90999985    2.64000010
   14.16722298  125.51899719    4.90999985    2.64000010
   14.17055607  134.38499451    4.90999985    2.64000010
   14.17361164  136.48699951    4.90999985    2.66000009
   14.17694473  148.59599304    4.90999985    2.66000009
   14.18027782  137.55999756    4.90999985    2.64000010
   14.18333340  130.14199829    4.90999985    2.64000010
   14.18388939  131.29699707    4.90999985    2.64000010
   14.19000053  131.29699707    4.90999985    2.64000010
   14.19416714  129.24499512    4.90999985    2.64000010
   14.19722271  123.22399902    4.90999985    2.66000009
   14.20055580  138.67300415    4.90999985    2.61999989
   14.20361137  132.75700378    4.90999985    2.64000010
   14.20694447  132.28599548    4.90999985    2.64000010
   14.21027756  126.22599792    4.90999985    2.64000010
   14.21333313  136.62100220    4.90999985    2.64000010
   14.21666622  141.61799622    4.90999985    2.64000010
   14.21722221  146.28300476    4.90999985    2.66000009
   14.22027779  137.89399719    4.90999985    2.64000010
   14.22361088  138.30499268    4.90999985    2.61999989
   14.22666645  132.44599915    4.90999985    2.66000009
   14.23277760  132.44599915    4.90999985    2.64000010
   14.23694515  126.66600037    4.90999985    2.64000010
   14.24000072  136.97700500    4.90999985    2.64000010
   14.24333382  131.19299316    4.90999985    2.61999989
   14.24666691  130.22700500    4.90999985    2.64000010
   14.24972248  132.25100708    4.90999985    2.64000010
   14.25055599  143.94700623    4.90999985    2.64000010
   14.25333309  140.56399536    4.90999985    2.66000009
   14.25666714  123.59300232    4.90999985    2.66000009
   14.25972176  129.52499390    4.90999985    2.64000010
   14.26305580  138.91499329    4.90999985    2.64000010
   14.26611137  135.60299683    4.90999985    2.64000010
   14.26944447  132.75399780    4.90999985    2.64000010
   14.27555561  132.75399780    4.90999985    2.61999989
   14.27972221  136.69400024    4.90999985    2.64000010
   14.28305531  129.31300354    4.90999985    2.66000009
   14.28388977  130.44999695    4.90999985    2.66000009
   14.28666687  130.25300598    4.90999985    2.66000009
   14.29000092  136.96200562    4.90999985    2.64000010
   14.29305553  132.34399414    4.90999985    2.66000009
   14.29638958  146.20100403    4.90999985    2.64000010
   14.29944515  138.43299866    4.90999985    2.64000010
   14.30277824  138.42799377    4.90999985    2.66000009
   14.30611134  143.36099243    4.90999985    2.66000009
   14.30916691  132.89100647    4.90999985    2.64000010
   14.31250000  130.24000549    4.90999985    2.66000009
   14.31861115  130.24000549    4.90999985    2.64000010
   14.32250023  130.40899658    4.90999985    2.64000010
   14.32583332  123.88099670    4.90999985    2.64000010
   14.32916641  120.94200134    4.90999985    2.64000010
   14.33222198  128.46899414    4.90999985    2.64000010
   14.33555508  130.74800110    4.90999985    2.64000010
   14.33861065  132.07400513    4.90999985    2.64000010
   14.34194374  123.07800293    4.90999985    2.66000009
   14.34499931  133.89700317    4.90999985    2.64000010
   14.34833336  145.48300171    4.90999985    2.66000009
   14.35055637  132.62199402    4.90999985    2.66000009
   14.35194492  139.90100098    4.90999985    2.66000009
   14.35527802  134.40100098    4.90999985    2.64000010
   14.36138916  134.40100098    4.90999985    2.64000010
   14.36555576  123.71399689    4.90999985    2.64000010
   14.36861134  122.26499939    4.90999985    2.66000009
   14.37194443  126.91200256    4.90999985    2.66000009
   14.37527752  126.74800110    4.90999985    2.66000009
   14.37833309  133.35200500    4.90999985    2.66000009
   14.38166714  120.93900299    4.90999985    2.66000009
   14.38388920  112.66699982    4.90999985    2.66000009
   14.38527775  134.68200684    4.90999985    2.66000009
   14.38861084  131.31199646    4.90999985    2.66000009
   14.39166641  118.83699799    4.90999985    2.66000009
   14.39499950  129.24099731    4.90999985    2.66000009
   14.39805508  126.13899994    4.90999985    2.66000009
   14.40416622  126.13899994    4.90999985    2.66000009
   14.40833282  124.55300140    4.90999985    2.66000009
   14.41166592  135.18899536    4.90999985    2.66000009
   14.41472149  119.75499725    4.90999985    2.64000010
   14.41722298  132.93800354    4.90999985    2.66000009
   14.41833401  126.90499878    4.90999985    2.66000009
   14.42166710  122.21199799    4.90999985    2.66000009
   14.42472267  129.26699829    4.90999985    2.64000010
   14.42805576  111.77400208    4.90999985    2.64000010
   14.43111134  132.23199463    4.90999985    2.66000009
   14.43444443  123.73400116    4.90999985    2.64000010
   14.43777752  126.72899628    4.90999985    2.64000010
   14.44083309  129.18299866    4.90999985    2.64000010
   14.44694424  129.18299866    4.90999985    2.66000009
   14.45111084  122.69799805    4.90999985    2.66000009
   14.45444393  126.90499878    4.90999985    2.66000009
   14.45749950  125.09300232    4.90999985    2.64000010
   14.46083355  126.24099731    4.90999985    2.66000009
   14.46416664  126.66400146    4.90999985    2.66000009
   14.46722221  128.72500610    4.90999985    2.64000010
   14.47055531  121.23999786    4.90999985    2.66000009
   14.47361088  129.02000427    4.90999985    2.66000009
   14.47694397  127.14800262    4.90999985    2.64000010
   14.47999954  128.17500305    4.90999985    2.67000008
   14.48333359  123.55500031    4.90999985    2.66000009
   14.48388958  122.80899811    4.90999985    2.66000009
   14.49000072  122.80899811    4.90999985    2.66000009
   14.49388885  117.51399994    4.90999985    2.66000009
   14.49722290  124.93699646    4.90999985    2.66000009
   14.50055599  123.14099884    4.90999985    2.64000010
   14.50361156  118.07499695    4.90999985    2.64000010
   14.50694466  120.69699860    4.90999985    2.66000009
   14.51000023  121.22799683    4.90999985    2.66000009
   14.51333332  113.27300262    4.90999985    2.66000009
   14.51666641  116.40499878    4.90999985    2.66000009
   14.51749992  121.73100281    4.90999985    2.64000010
   14.52027798  118.28700256    4.90999985    2.66000009
   14.52361107  120.84899902    4.90999985    2.64000010
   14.52666664  122.04499817    4.90999985    2.64000010
   14.53277779  122.04499817    4.90999985    2.66000009
   14.53694534  126.70600128    4.90999985    2.66000009
   14.54000092  128.27799988    4.90999985    2.66000009
   14.54333401  131.86099243    4.90999985    2.66000009
   14.54638958  120.09999847    4.90999985    2.66000009
   14.54972267  133.25500488    4.90999985    2.66000009
   14.55083370  131.93699646    4.90999985    2.67000008
   14.55333328  136.16700745    4.90999985    2.67000008
   14.55666733  130.55700684    4.90999985    2.67000008
   14.55972195  130.25799561    4.90999985    2.67000008
   14.56305599  138.32699585    4.90999985    2.67000008
   14.56611156  128.42700195    4.90999985    2.66000009
   14.56944466  133.31100464    4.90999985    2.66000009
   14.57555580  133.31100464    4.90999985    2.66000009
   14.57972240  109.83899689    4.90999985    2.66000009
   14.58305550  124.35700226    4.90999985    2.66000009
   14.58416653  124.20500183    4.90999985    2.66000009
   14.58638859  131.61500549    4.90999985    2.67000008
   14.58972168  126.10900116    4.90999985    2.67000008
   14.59277725  117.55999756    4.90999985    2.64000010
   14.59611034  130.60699463    4.90999985    2.61999989
   14.59916592  118.44699860    4.90999985    2.61999989
   14.60249996  123.66100311    4.90999985    2.64000010
   14.60583401  129.63400269    4.90999985    2.66000009
   14.60888958  110.51799774    4.90999985    2.64000010
   14.61222267  120.72899628    4.90999985    2.66000009
   14.61833382  120.72899628    4.90999985    2.61999989
   14.62250042  110.87400055    4.90999985    2.59999990
   14.62583351  112.13800049    4.90999985    2.61999989
   14.62916660  115.47399902    4.90999985    2.64000010
   14.63222218  114.60900116    4.90999985    2.66000009
   14.63555527  120.05899811    4.90999985    2.66000009
   14.63861084  114.44300079    4.90999985    2.66000009
   14.64194393  112.82199860    4.90999985    2.66000009
   14.64499950  118.63400269    4.90999985    2.66000009
   14.64833355  123.93000031    4.90999985    2.64000010
   14.65083313  141.88999939    4.90999985    2.59999990
   14.65194416  122.63800049    4.90999985    2.61999989
   14.65527725  125.30000305    4.90999985    2.64000010
   14.66138840  125.30000305    4.90999985    2.64000010
   14.66527748  139.30099487    4.90999985    2.59999990
   14.66861153  118.95400238    4.90999985    2.64000010
   14.67194462  125.18599701    4.90999985    2.61999989
   14.67500019  137.93600464    4.90999985    2.64000010
   14.67833328  134.23100281    4.90999985    2.61999989
   14.68138885  134.43499756    4.90999985    2.66000009
   14.68416691  131.49800110    4.90999985    2.67000008
   14.68500042  127.24099731    4.90999985    2.67000008
   14.68833351  135.08999634    4.90999985    2.67000008
   14.69138908  129.64300537    4.90999985    2.66000009
   14.69472218  120.19000244    4.90999985    2.66000009
   14.69805527  130.85400391    4.90999985    2.67000008
   14.70416641  130.85400391    4.90999985    2.67000008
   14.70833302  121.48200226    4.90999985    2.66000009
   14.71138859  123.38099670    4.90999985    2.67000008
   14.71472168  130.71499634    4.90999985    2.67000008
   14.71749973  121.88899994    4.90999985    2.66000009
   14.71833324  124.95899963    4.90999985    2.66000009
   14.72166634  116.95400238    4.90999985    2.66000009
   14.72472191  119.81400299    4.90999985    2.67000008
   14.72805500  124.33499908    4.90999985    2.66000009
   14.73138809  121.85500336    4.90999985    2.66000009
   14.73444462  117.25199890    4.90999985    2.66000009
   14.73777771  122.42700195    4.90999985    2.67000008
   14.74083328  121.34600067    4.90999985    2.66000009
   14.74694443  121.34600067    4.90999985    2.67000008
   14.75111103  121.80300140    4.90999985    2.67000008
   14.75444412  128.87600708    4.90999985    2.67000008
   14.75749969  130.91600037    4.90999985    2.66000009
   14.76083374  134.84599304    4.90999985    2.67000008
   14.76388931  120.81400299    4.90999985    2.67000008
   14.76722240  117.33000183    4.90999985    2.66000009
   14.77027798  116.79599762    4.90999985    2.67000008
   14.77361107  124.84100342    4.90999985    2.64000010
   14.77694416  121.17700195    4.90999985    2.66000009
   14.77999973  123.11900330    4.90999985    2.67000008
   14.78333378  111.91600037    4.90999985    2.67000008
   14.78416729  129.49600220    4.90999985    2.67000008
   14.78972244  129.49600220    4.90999985    2.67000008
   14.79388905  116.63200378    4.90999985    2.67000008
   14.79722309  119.91400146    4.90999985    2.67000008
   14.80027771  123.62400055    4.90999985    2.67000008
   14.80361176  120.00800323    4.90999985    2.66000009
   14.80694485  122.75199890    4.90999985    2.67000008
   14.81000042  115.94000244    4.90999985    2.67000008
   14.81333351  115.43099976    4.90999985    2.67000008
   14.81638908  112.89700317    4.90999985    2.67000008
   14.81750011  117.34400177    4.90999985    2.67000008
   14.81999969  120.16999817    4.90999985    2.67000008
   14.82333374  126.65799713    4.90999985    2.67000008
   14.82638836  119.44799805    4.90999985    2.67000008
   14.83277798  119.44799805    4.90999985    2.67000008
   14.83694458  115.43000031    4.90999985    2.67000008
   14.84000015  129.24099731    4.90999985    2.67000008
   14.84333324  128.06599426    4.90999985    2.67000008
   14.84638882  116.80100250    4.90999985    2.69000006
   14.84972191  123.88999939    4.90999985    2.67000008
   14.85083389  124.15399933    4.90999985    2.67000008
   14.85333347  122.19300079    4.90999985    2.67000008
   14.85666752  115.75000000    4.90999985    2.67000008
   14.85972214  118.53600311    4.90999985    2.67000008
   14.86305618  125.39499664    4.90999985    2.67000008
   14.86638927  122.28299713    4.90999985    2.67000008
   14.86944485  120.14399719    4.90999985    2.69000006
   14.87555599  120.14399719    4.90999985    2.67000008
   14.87972260  116.03099823    4.90999985    2.67000008
   14.88277817  111.03099823    4.90999985    2.67000008
   14.88416672  112.18599701    4.90999985    2.69000006
   14.88638878  124.01799774    4.90999985    2.67000008
   14.88972187  117.75399780    4.90999985    2.67000008
   14.89277744  117.36199951    4.90999985    2.67000008
   14.89611053  117.69200134    4.90999985    2.67000008
   14.89944458  111.12100220    4.90999985    2.67000008
   14.90249920  118.27200317    4.90999985    2.69000006
   14.90583324  113.09600067    4.90999985    2.67000008
   14.90888882  123.38899994    4.90999985    2.66000009
   14.91222191  119.20899963    4.90999985    2.67000008
   14.91833401  119.20899963    4.90999985    2.66000009
   14.92250061  122.52400208    4.90999985    2.67000008
   14.92583370  134.65899658    4.90999985    2.67000008
   14.92888927  121.59200287    4.90999985    2.67000008
   14.93222237  126.48999786    4.90999985    2.67000008
   14.93527794  125.80899811    4.90999985    2.66000009
   14.93861103  128.73899841    4.90999985    2.67000008
   14.94194412  130.84300232    4.90999985    2.69000006
   14.94499969  121.07700348    4.90999985    2.66000009
   14.94833374  110.00000000    4.90999985    2.67000008
   14.95083332  115.34799957    4.90999985    2.67000008
   14.95166683  127.00199890    4.90999985    2.67000008
   14.95499992  115.12200165    4.90999985    2.67000008
   14.96111107  115.12200165    4.90999985    2.67000008
   14.96527767  115.85500336    4.90999985    2.67000008
   14.96861076  107.44899750    4.90999985    2.67000008
   14.97166634  111.62799835    4.90999985    2.67000008
   14.97499943  117.97000122    4.90999985    2.67000008
   14.97833252  116.91799927    4.90999985    2.67000008
   14.98138809  116.49600220    4.90999985    2.67000008
   14.98416710  113.91600037    4.90999985    2.67000008
   14.98500061  124.78399658    4.90999985    2.67000008
   14.98833370  123.02600098    4.90999985    2.67000008
   14.99166679  122.95800018    4.90999985    2.67000008
   14.99472237  124.20300293    4.90999985    2.69000006
   14.99805546  123.91500092    4.90999985    2.67000008
   15.00416660  123.91500092    4.90999985    2.67000008
   15.00833321  117.02300262    4.90999985    2.67000008
   15.01138878  119.93499756    4.90999985    2.69000006
   15.01472187  123.19799805    4.90999985    2.67000008
   15.01749992  127.83100128    4.90999985    2.67000008
   15.01805496  119.29299927    4.90999985    2.67000008
   15.02138901  121.82299805    4.90999985    2.71000004
   15.02472210  112.82299805    4.90999985    2.67000008
   15.02777767  118.38600159    4.90999985    2.69000006
   15.03111076  119.43800354    4.90999985    2.69000006
   15.03416729  134.00399780    4.90999985    2.67000008
   15.03750038  111.68599701    4.90999985    2.69000006
   15.04055595  123.51899719    4.90999985    2.67000008
   15.04694462  123.51899719    4.90999985    2.69000006
   15.05111122  117.03900146    4.90999985    2.67000008
   15.05416679  109.41000366    4.90999985    2.69000006
   15.05749989  116.18800354    4.90999985    2.67000008
   15.06083393  117.26599884    4.90999985    2.67000008
   15.06388950  124.32399750    4.90999985    2.67000008
   15.06722260  116.06400299    4.90999985    2.69000006
   15.07027817  116.30599976    4.90999985    2.69000006
   15.07361126  115.19100189    4.90999985    2.67000008
   15.07694435  111.47200012    4.90999985    2.67000008
   15.07999992  120.66300201    4.90999985    2.67000008
   15.08333302  109.62500000    4.90999985    2.67000008
   15.08416653  111.95700073    4.90999985    2.67000008
   15.10472298  111.95700073    4.90999985    2.67000008
   15.10888958  119.37400055    4.90999985    2.69000006
   15.11222267  114.84700012    4.90999985    2.69000006
   15.11527824  115.62899780    4.90999985    2.69000006
   15.11750031  121.17400360    4.90999985    2.69000006
   15.11888885  115.33300018    4.90999985    2.69000006
   15.12222195  113.62799835    4.90999985    2.69000006
   15.12555599  115.86100006    4.90999985    2.69000006
   15.12861156  116.07199860    4.90999985    2.69000006
   15.13194466  111.42199707    4.90999985    2.69000006
   15.13500023  124.37200165    4.90999985    2.69000006
   15.13833332  129.42900085    4.90999985    2.69000006
   15.14138889  119.83799744    4.90999985    2.69000006
   15.14750004  119.83799744    4.90999985    2.69000006
   15.15166664  112.83499908    4.90999985    2.67000008
   15.15499973  119.30699921    4.90999985    2.69000006
   15.15805531  116.46800232    4.90999985    2.69000006
   15.16138840  105.29499817    4.90999985    2.67000008
   15.16444397  112.33000183    4.90999985    2.69000006
   15.16777802  107.99500275    4.90999985    2.69000006
   15.17111111  106.07199860    4.90999985    2.69000006
   15.17416668  116.73200226    4.90999985    2.69000006
   15.17750072  104.37899780    4.90999985    2.69000006
   15.18055630  119.10099792    4.90999985    2.69000006
   15.18388939  111.66699982    4.90999985    2.69000006
   15.18444443  120.62300110    4.90999985    2.69000006
   15.19055557  120.62300110    4.90999985    2.69000006
   15.19444466  114.78700256    4.90999985    2.69000006
   15.19777775  112.39800262    4.90999985    2.69000006
   15.20083332  112.54299927    4.90999985    2.69000006
   15.20416641  115.30799866    4.90999985    2.69000006
   15.20749950  112.80699921    4.90999985    2.69000006
   15.21055508  125.50700378    4.90999985    2.69000006
   15.21388912  110.39800262    4.90999985    2.69000006
   15.21694374  111.52100372    4.90999985    2.67000008
   15.21777725  112.71499634    4.90999985    2.69000006
   15.22083282  115.04900360    4.90999985    2.69000006
   15.22388840  102.97599792    4.90999985    2.67000008
   15.22722149  109.79000092    4.90999985    2.69000006
   15.23333359  109.79000092    4.90999985    2.69000006
   15.23750019  115.37300110    4.90999985    2.69000006
   15.24055576  111.82199860    4.90999985    2.69000006
   15.24388885  120.42600250    4.90999985    2.69000006
   15.24694443  125.56400299    4.90999985    2.69000006
   15.25027752  123.46600342    4.90999985    2.69000006
   15.25111103  114.71199799    4.90999985    2.69000006
   15.25388908  118.40299988    4.90999985    2.69000006
   15.25694466  112.40899658    4.90999985    2.69000006
   15.26027775  119.06300354    4.90999985    2.71000004
   15.26333332  112.87899780    4.90999985    2.69000006
   15.26666641  113.51499939    4.90999985    2.69000006
   15.26972198  115.50499725    4.90999985    2.69000006
   15.27611065  115.50499725    4.90999985    2.69000006
   15.28027725  116.42900085    4.90999985    2.69000006
   15.28333378  116.69599915    4.90999985    2.67000008
   15.28444481  116.29599762    4.90999985    2.67000008
   15.28722286  114.83799744    4.90999985    2.71000004
   15.29027843  123.51300049    4.90999985    2.69000006
   15.29361153  115.98699951    4.90999985    2.69000006
   15.29666710  111.11000061    4.90999985    2.69000006
   15.30000019  119.98500061    4.90999985    2.69000006
   15.30305576  117.95400238    4.90999985    2.69000006
   15.30638885  109.74500275    4.90999985    2.69000006
   15.30972195  115.97299957    4.90999985    2.69000006
   15.31277752  118.50099945    4.90999985    2.69000006
   15.31888866  118.50099945    4.90999985    2.67000008
   15.32305527  113.98200226    4.90999985    2.69000006
   15.32638836  108.76399994    4.90999985    2.69000006
   15.32944393  104.94300079    4.90999985    2.69000006
   15.33277798  123.69599915    4.90999985    2.69000006
   15.33583260  116.40699768    4.90999985    2.69000006
   15.33916664  127.06900024    4.90999985    2.67000008
   15.34249973  112.40299988    4.90999985    2.69000006
   15.34555531  112.34899902    4.90999985    2.69000006
   15.34888840  112.95600128    4.90999985    2.69000006
   15.35111141  109.18800354    4.90999985    2.69000006
   15.35249996  121.99500275    4.90999985    2.69000006
   15.35555553  117.13099670    4.90999985    2.67000008
   15.36166668  117.13099670    4.90999985    2.69000006
   15.36583328  121.06900024    4.90999985    2.69000006
   15.36916637  110.94999695    4.90999985    2.67000008
   15.37222195  100.99299622    4.90999985    2.69000006
   15.37555599  108.14700317    4.90999985    2.69000006
   15.37888908  108.60099792    4.90999985    2.69000006
   15.38194466  109.09100342    4.90999985    2.69000006
   15.38444424  115.44000244    4.90999985    2.69000006
   15.38583279  113.58399963    4.90999985    2.69000006
   15.38888836  111.48500061    4.90999985    2.69000006
   15.39222240  123.52799988    4.90999985    2.69000006
   15.39527798  113.17400360    4.90999985    2.69000006
   15.39861107  113.94400024    4.90999985    2.69000006
   15.40472221  113.94400024    4.90999985    2.69000006
   15.40888882  116.67700195    4.90999985    2.71000004
   15.41194439  103.77300262    4.90999985    2.69000006
   15.41527748  110.42600250    4.90999985    2.69000006
   15.41777802  102.60500336    4.90999985    2.69000006
   15.41888905  108.17099762    4.90999985    2.69000006
   15.42194462  114.05699921    4.90999985    2.69000006
   15.42527771  110.05899811    4.90999985    2.69000006
   15.42861176  114.20200348    4.90999985    2.69000006
   15.43166733  112.42199707    4.90999985    2.71000004
   15.43500042  110.19200134    4.90999985    2.71000004
   15.43805599  108.31800079    4.90999985    2.69000006
   15.44138908  116.31400299    4.90999985    2.69000006
   15.44750023  116.31400299    4.90999985    2.69000006
   15.45166683  116.87200165    4.90999985    2.69000006
   15.45472240  113.73899841    4.90999985    2.71000004
   15.45805550  119.96199799    4.90999985    2.69000006
   15.46138859  121.55300140    4.90999985    2.69000006
   15.46444416  116.43900299    4.90999985    2.69000006
   15.46777725  113.57099915    4.90999985    2.69000006
   15.47083282  116.29799652    4.90999985    2.69000006
   15.47416592  110.74199677    4.90999985    2.69000006
   15.47722149  125.90899658    4.90999985    2.69000006
   15.48055553  116.92099762    4.90999985    2.69000006
   15.48388958  122.14499664    4.90999985    2.69000006
   15.48444462  119.85900116    4.90999985    2.69000006
   15.49027824  119.85900116    4.90999985    2.69000006
   15.49444485  115.61699677    4.90999985    2.71000004
   15.49777794  110.87899780    4.90999985    2.71000004
   15.50083351  112.34300232    4.90999985    2.69000006
   15.50416660  107.01100159    4.90999985    2.71000004
   15.50749969  112.70800018    4.90999985    2.71000004
   15.51055527  106.18499756    4.90999985    2.69000006
   15.51388931  110.09100342    4.90999985    2.71000004
   15.51694393  111.33100128    4.90999985    2.69000006
   15.51777744  118.44400024    4.90999985    2.69000006
   15.52083302  120.01699829    4.90999985    2.69000006
   15.52388859  106.98400116    4.90999985    2.69000006
   15.52722168  121.81800079    4.90999985    2.71000004
   15.53305531  121.81800079    4.90999985    2.71000004
   15.53722286  114.14600372    4.90999985    2.71000004
   15.54055595  114.66600037    4.90999985    2.71000004
   15.54361153  112.03399658    4.90999985    2.71000004
   15.54694462  127.17400360    4.90999985    2.71000004
   15.55027771  118.31700134    4.90999985    2.71000004
   15.55111122  114.62500000    4.90999985    2.69000006
   15.55388927  116.05599976    4.90999985    2.71000004
   15.65305519   -1.00000000   -1.00000000   -1.00000000
   15.75138855   -1.00000000   -1.00000000   -1.00000000
   15.85833359   -1.00000000   -1.00000000   -1.00000000
   15.98500061  141.33799744    4.90999985    2.71000004
   15.98833370  127.01699829    4.90999985    2.73000002
   15.99138927  122.37000275    4.90999985    2.71000004
   15.99472237  130.94500732    4.90999985    2.71000004
   15.99777794  116.37899780    4.90999985    2.71000004
   16.00111198  118.19100189    4.90999985    2.71000004
   16.00527763  118.19100189    4.90999985    2.71000004
   16.00944519  121.43299866    4.90999985    2.71000004
   16.01250076  120.84700012    4.90999985    2.73000002
   16.01583290  117.14700317    4.90999985    2.73000002
   16.01833344  115.96199799    4.90999985    2.73000002
   16.01944351  123.59300232    4.90999985    2.71000004
   16.02277756  119.18000031    4.90999985    2.71000004
   16.02583313  116.53600311    4.90999985    2.71000004
   16.03222275  119.30999756    4.90999985    2.71000004
   16.03555489  111.09300232    4.90999985    2.71000004
   16.03861046  109.44499969    4.90999985    2.73000002
   16.04194450  117.17700195    4.90999985    2.73000002
   16.04805565  117.17700195    4.90999985    2.73000002
   16.05222130  115.20700073    4.90999985    2.73000002
   16.05555534  118.69400024    4.90999985    2.73000002
   16.05861092  124.43199921    4.90999985    2.73000002
   16.06194305  119.44100189    4.90999985    2.73000002
   16.06527710  114.38400269    4.90999985    2.71000004
   16.06833458  114.43499756    4.90999985    2.71000004
   16.07166672  111.85500336    4.90999985    2.73000002
   16.07472229  115.86399841    4.90999985    2.71000004
   16.07805634  116.31300354    4.90999985    2.73000002
   16.08139038  111.73400116    4.90999985    2.73000002
   16.08444595  115.75800323    4.90999985    2.73000002
   16.08500099  113.23500061    4.90999985    2.73000002
   16.09083366  113.23500061    4.90999985    2.71000004
   16.09500122  117.81800079    4.90999985    2.71000004
   16.09833336   99.01760101    4.90999985    2.71000004
   16.10166740  106.58799744    4.90999985    2.71000004
   16.10472298  105.14099884    4.90999985    2.71000004
   16.10805511  108.33300018    4.90999985    2.73000002
   16.11111069  111.78199768    4.90999985    2.71000004
   16.11444473  106.13099670    4.90999985    2.71000004
   16.11777878  102.65200043    4.90999985    2.73000002
   16.11833382  118.86000061    4.90999985    2.73000002
   16.12138939  117.80799866    4.90999985    2.73000002
   16.12444496  109.91300201    4.90999985    2.73000002
   16.12777710  118.18000031    4.90999985    2.73000002
   16.13388824  118.18000031    4.90999985    2.73000002
   16.13805580  123.73200226    4.90999985    2.71000004
   16.14111137  110.17299652    4.90999985    2.71000004
   16.14444351  113.83899689    4.90999985    2.73000002
   16.14749908  103.76000214    4.90999985    2.73000002
   16.15083313  114.10600281    4.90999985    2.73000002
   16.15166664  108.92500305    4.90999985    2.73000002
   16.15472221  104.98500061    4.90999985    2.73000002
   16.15777779  107.56300354    4.90999985    2.73000002
   16.16110992  104.59799957    4.90999985    2.71000004
   16.16444397  115.29100037    4.90999985    2.73000002
   16.16749954  110.83399963    4.90999985    2.73000002
   16.17083359  104.68900299    4.90999985    2.73000002
   16.17666626  104.68900299    4.90999985    2.73000002
   16.18083191  117.29199982    4.90999985    2.73000002
   16.18388748  119.82499695    4.90999985    2.73000002
   16.18499947  121.35500336    4.90999985    2.73000002
   16.18777657  118.37500000    4.90999985    2.73000002
   16.19083214  118.13999939    4.90999985    2.71000004
   16.19416618  114.90599823    4.90999985    2.73000002
   16.19749832  117.10600281    4.90999985    2.71000004
   16.20055580  109.95999908    4.90999985    2.73000002
   16.20388985  121.10700226    4.90999985    2.73000002
   16.20722389  118.37000275    4.90999985    2.73000002
   16.21027946  120.02999878    4.90999985    2.73000002
   16.21361160  121.59300232    4.90999985    2.73000002
   16.21944427  121.59300232    4.90999985    2.73000002
   16.22361183  124.98400116    4.90999985    2.73000002
   16.22694588  122.17099762    4.90999985    2.71000004
   16.23000145  123.25099945    4.90999985    2.73000002
   16.23333359  113.96199799    4.90999985    2.71000004
   16.23666763  122.52200317    4.90999985    2.73000002
   16.23972321  125.59100342    4.90999985    2.71000004
   16.24305534  110.64099884    4.90999985    2.73000002
   16.24638939  123.22100067    4.90999985    2.71000004
   16.24944496  123.91000366    4.90999985    2.73000002
   16.25166702  125.23100281    4.90999985    2.71000004
   16.25333405  129.51499939    4.90999985    2.71000004
   16.25638962  124.28800201    4.90999985    2.73000002
   16.26222229  124.28800201    4.90999985    2.71000004
   16.26638794  118.13200378    4.90999985    2.73000002
   16.26972198  128.29800415    4.90999985    2.71000004
   16.27305603  117.91899872    4.90999985    2.73000002
   16.27611160  117.30300140    4.90999985    2.73000002
   16.27944374  124.27799988    4.90999985    2.73000002
   16.28249931  119.19000244    4.90999985    2.73000002
   16.28499985  119.44599915    4.90999985    2.73000002
   16.28638840  115.02300262    4.90999985    2.73000002
   16.28972244  114.50599670    4.90999985    2.75000000
   16.29277802  121.72699738    4.90999985    2.73000002
   16.29611015  121.72499847    4.90999985    2.73000002
   16.29916573  112.63999939    4.90999985    2.73000002
   16.30527687  112.63999939    4.90999985    2.73000002
   16.30944443  113.89700317    4.90999985    2.73000002
   16.31250000  121.23500061    4.90999985    2.73000002
   16.31583214  113.06500244    4.90999985    2.73000002
   16.31833458  128.26300049    4.90999985    2.73000002
   16.31944466  119.04499817    4.90999985    2.73000002
   16.32277870  129.05999756    4.90999985    2.73000002
   16.32583427  109.41300201    4.90999985    2.73000002
   16.32916832  121.71399689    4.90999985    2.73000002
   16.33222389  116.22200012    4.90999985    2.73000002
   16.33555603  117.97799683    4.90999985    2.73000002
   16.33889008  117.17900085    4.90999985    2.73000002
   16.34194565  120.17600250    4.90999985    2.73000002
   16.34805679  120.17600250    4.90999985    2.73000002
   16.35222244  113.28900146    4.90999985    2.73000002
   16.35527802  113.56099701    4.90999985    2.73000002
   16.35861206  122.76899719    4.90999985    2.73000002
   16.36194420  121.81300354    4.90999985    2.73000002
   16.36499977  115.09300232    4.90999985    2.73000002
   16.36833382  121.12799835    4.90999985    2.73000002
   16.37166595  122.73699951    4.90999985    2.73000002
   16.37472153  115.00700378    4.90999985    2.73000002
   16.37805557  115.21900177    4.90999985    2.73000002
   16.38111115  122.41799927    4.90999985    2.73000002
   16.38444519  119.92199707    4.90999985    2.73000002
   16.38500023  109.78199768    4.90999985    2.73000002
   16.39083290  109.78199768    4.90999985    2.73000002
   16.39500046  112.74299622    4.90999985    2.73000002
   16.39833260  116.38099670    4.90999985    2.73000002
   16.40138817  116.37799835    4.90999985    2.71000004
   16.40472221  106.05200195    4.90999985    2.71000004
   16.40805435  112.15399933    4.90999985    2.73000002
   16.41110992  110.95800018    4.90999985    2.71000004
   16.41444397  107.33399963    4.90999985    2.71000004
   16.41749954  112.95600128    4.90999985    2.73000002
   16.41833305  111.43199921    4.90999985    2.73000002
   16.42138863  112.74400330    4.90999985    2.73000002
   16.42472076  121.34100342    4.90999985    2.73000002
   16.42777634  106.16000366    4.90999985    2.73000002
   16.43361092  106.16000366    4.90999985    2.71000004
   16.43777657  116.76300049    4.90999985    2.71000004
   16.44111061  115.66300201    4.90999985    2.73000002
   16.44444275  118.91899872    4.90999985    2.73000002
   16.44749832  112.72000122    4.90999985    2.73000002
   16.45083427  121.17900085    4.90999985    2.73000002
   16.45166779  121.12799835    4.90999985    2.73000002
   16.45444489  115.99099731    4.90999985    2.73000002
   16.45777893  117.28800201    4.90999985    2.75000000
   16.46083450  114.97000122    4.90999985    2.75000000
   16.46416664  117.13999939    4.90999985    2.75000000
   16.46722221  112.58799744    4.90999985    2.73000002
   16.47055626  115.26799774    4.90999985    2.73000002
   16.47666740  115.26799774    4.90999985    2.73000002
   16.48083305  109.53199768    4.90999985    2.73000002
   16.48388863  115.20300293    4.90999985    2.75000000
   16.48500061  108.12699890    4.90999985    2.75000000
   16.48750114  111.97299957    4.90999985    2.75000000
   16.49083328  116.23999786    4.90999985    2.75000000
   16.49388885  112.48799896    4.90999985    2.75000000
   16.49722290  116.36799622    4.90999985    2.73000002
   16.50055504  109.08799744    4.90999985    2.73000002
   16.50361061  112.49299622    4.90999985    2.73000002
   16.50694466  111.03199768    4.90999985    2.73000002
   16.51027870  118.36799622    4.90999985    2.73000002
   16.51333427  120.77600098    4.90999985    2.73000002
   16.51944351  120.77600098    4.90999985    2.73000002
   16.52361107  115.70300293    4.90999985    2.73000002
   16.52666664  111.76399994    4.90999985    2.71000004
   16.53000069  112.03099823    4.90999985    2.73000002
   16.53333282  105.38899994    4.90999985    2.73000002
   16.53638840  102.73500061    4.90999985    2.73000002
   16.53972244  113.52899933    4.90999985    2.73000002
   16.54305458  108.64800262    4.90999985    2.73000002
   16.54611015  110.97499847    4.90999985    2.73000002
   16.54944420  118.78299713    4.90999985    2.73000002
   16.55166626  111.10199738    4.90999985    2.73000002
   16.55305481  106.37699890    4.90999985    2.73000002
   16.55638885  109.46099854    4.90999985    2.73000002
   16.56222153  109.46099854    4.90999985    2.73000002
   16.56638718  115.63300323    4.90999985    2.73000002
   16.56972313  114.12400055    4.90999985    2.73000002
   16.57277870  114.06800079    4.90999985    2.73000002
   16.57611275  117.38600159    4.90999985    2.73000002
   16.57944489  118.73899841    4.90999985    2.71000004
   16.58250046  109.11799622    4.90999985    2.73000002
   16.58500099  124.08000183    4.90999985    2.73000002
   16.58611107  118.79000092    4.90999985    2.73000002
   16.58944511  122.78800201    4.90999985    2.73000002
   16.59250069  118.34600067    4.90999985    2.73000002
   16.59583473  121.36100006    4.90999985    2.73000002
   16.59916687  119.85299683    4.90999985    2.73000002
   16.60499954  119.85299683    4.90999985    2.73000002
   16.60916710  120.73000336    4.90999985    2.71000004
   16.61250114  115.14600372    4.90999985    2.73000002
   16.61583328  125.29399872    4.90999985    2.73000002
   16.61833382  121.05300140    4.90999985    2.73000002
   16.61944389  128.62500000    4.90999985    2.73000002
   16.62277794  120.79599762    4.90999985    2.73000002
   16.62583351  121.82800293    4.90999985    2.73000002
   16.62916756  112.67700195    4.90999985    2.73000002
   16.63249969  110.85099792    4.90999985    2.73000002
   16.63555527  114.15599823    4.90999985    2.75000000
   16.63888931  114.25099945    4.90999985    2.73000002
   16.64194489  110.67099762    4.90999985    2.73000002
   16.64805603  110.67099762    4.90999985    2.73000002
   16.65222168  123.54499817    4.90999985    2.75000000
   16.65527725  123.37999725    4.90999985    2.75000000
   16.65861130  121.17600250    4.90999985    2.75000000
   16.66166687  117.39600372    4.90999985    2.73000002
   16.66499901  122.59300232    4.90999985    2.73000002
   16.66833305  117.31900024    4.90999985    2.73000002
   16.67138863  115.73600006    4.90999985    2.73000002
   16.67472076  107.40299988    4.90999985    2.73000002
   16.67805481  108.69100189    4.90999985    2.73000002
   16.68111038  107.33599854    4.90999985    2.73000002
   16.68444443  103.91400146    4.90999985    2.73000002
   16.68499947  122.76000214    4.90999985    2.73000002
   16.69083214  122.76000214    4.90999985    2.73000002
   16.69499969  113.68000031    4.90999985    2.73000002
   16.69805527  106.25800323    4.90999985    2.73000002
   16.70138931  116.45500183    4.90999985    2.75000000
   16.70472336  121.78399658    4.90999985    2.73000002
   16.70777893  112.26100159    4.90999985    2.73000002
   16.71111107  107.82499695    4.90999985    2.73000002
   16.71416664  110.29100037    4.90999985    2.73000002
   16.71750069  114.71700287    4.90999985    2.73000002
   16.71833420  123.52100372    4.90999985    2.73000002
   16.72111130  106.11100006    4.90999985    2.73000002
   16.72444534  123.10299683    4.90999985    2.73000002
   16.72750092  122.41600037    4.90999985    2.73000002
   16.73361206  122.41600037    4.90999985    2.75000000
   16.73777771  119.58799744    4.90999985    2.73000002
   16.74111176  112.81600189    4.90999985    2.73000002
   16.74416733  115.48699951    4.90999985    2.73000002
   16.74749947  115.20700073    4.90999985    2.73000002
   16.75055504  106.15499878    4.90999985    2.73000002
   16.75166702  116.71900177    4.90999985    2.73000002
   16.75444412  116.50199890    4.90999985    2.73000002
   16.75777817  120.09700012    4.90999985    2.75000000
   16.76083374  113.54499817    4.90999985    2.75000000
   16.76416588  115.25900269    4.90999985    2.75000000
   16.76749992  113.64700317    4.90999985    2.75000000
   16.77055550  111.93699646    4.90999985    2.73000002
   16.77638817  111.93699646    4.90999985    2.73000002
   16.78055573  125.21099854    4.90999985    2.75000000
   16.78388786  115.64099884    4.90999985    2.73000002
   16.78499985  118.02700043    4.90999985    2.75000000
   16.78750038  125.01000214    4.90999985    2.73000002
   16.79083252  123.90799713    4.90999985    2.76999998
   16.79388809  121.63500214    4.90999985    2.75000000
   16.79722214  126.26799774    4.90999985    2.75000000
   16.80055428  123.70600128    4.90999985    2.73000002
   16.80360985  119.58300018    4.90999985    2.75000000
   16.80694389  112.00000000    4.90999985    2.75000000
   16.80999947  128.52400208    4.90999985    2.75000000
   16.81333351  120.63400269    4.90999985    2.75000000
   16.81944466  120.63400269    4.90999985    2.76999998
   16.82333374  122.56500244    4.90999985    2.76999998
   16.82666779  117.27500153    4.90999985    2.75000000
   16.83000183  114.25000000    4.90999985    2.75000000
   16.83305550  106.18199921    4.90999985    2.75000000
   16.83638954  120.13400269    4.90999985    2.75000000
   16.83944511  118.33000183    4.90999985    2.75000000
   16.84277916  125.52999878    4.90999985    2.76999998
   16.84611130  122.53600311    4.90999985    2.75000000
   16.84916687  116.27500153    4.90999985    2.75000000
   16.85166740  114.87699890    4.90999985    2.75000000
   16.85277748  109.85399628    4.90999985    2.75000000
   16.85611153  115.24299622    4.90999985    2.75000000
   16.86222267  115.24299622    4.90999985    2.75000000
   16.86638832  123.79299927    4.90999985    2.75000000
   16.86944389  124.19499969    4.90999985    2.75000000
   16.87277794  128.16799927    4.90999985    2.75000000
   16.87611198  118.93299866    4.90999985    2.75000000
   16.87916756  135.71899414    4.90999985    2.73000002
   16.88249969  135.55900574    4.90999985    2.73000002
   16.88500023  126.15200043    4.90999985    2.75000000
   16.88611031  132.81900024    4.90999985    2.75000000
   16.88944435  128.09800720    4.90999985    2.75000000
   16.89249992  126.45999908    4.90999985    2.75000000
   16.89583397  127.30300140    4.90999985    2.73000002
   16.89916611  129.04499817    4.90999985    2.75000000
   16.90499878  129.04499817    4.90999985    2.75000000
   16.90916634  113.49099731    4.90999985    2.75000000
   16.91250038  126.33300018    4.90999985    2.76999998
   16.91555595  136.34599304    4.90999985    2.75000000
   16.91860962  134.28399658    4.90999985    2.75000000
   16.91916656  127.31099701    4.90999985    2.75000000
   16.92249870  122.80400085    4.90999985    2.75000000
   16.92555428  125.74099731    4.90999985    2.75000000
   16.92888832  122.19999695    4.90999985    2.75000000
   16.93222237  119.88700104    4.90999985    2.75000000
   16.93527603  122.70200348    4.90999985    2.75000000
   16.93861008  123.43499756    4.90999985    2.73000002
   16.94166565  113.58799744    4.90999985    2.73000002
   16.94777679  113.58799744    4.90999985    2.73000002
   16.95194435  111.25099945    4.90999985    2.73000002
   16.95527840  115.83300018    4.90999985    2.73000002
   16.95833397  121.34700012    4.90999985    2.73000002
   16.96166801  123.91500092    4.90999985    2.75000000
   16.96500015  119.31900024    4.90999985    2.73000002
   16.96805573  115.53199768    4.90999985    2.73000002
   16.97138977  120.37799835    4.90999985    2.73000002
   16.97444534  105.13300323    4.90999985    2.73000002
   16.97777748  109.29000092    4.90999985    2.73000002
   16.98111153  124.42199707    4.90999985    2.75000000
   16.98416710  120.16100311    4.90999985    2.71000004
   16.98527718  104.38999939    4.90999985    2.73000002
   17.00583267  104.38999939    4.90999985    2.73000002
   17.01000023  114.55899811    4.90999985    2.75000000
   17.01305580  119.16100311    4.90999985    2.73000002
   17.01638794  122.39099884    4.90999985    2.73000002
   17.01861000  118.77700043    4.90999985    2.75000000
   17.02000046  112.49600220    4.90999985    2.75000000
   17.02333260  116.65000153    4.90999985    2.75000000
   17.02666664  121.45500183    4.90999985    2.75000000
   17.02972221  116.30000305    4.90999985    2.75000000
   17.03305435  114.34500122    4.90999985    2.75000000
   17.03610992  116.54799652    4.90999985    2.75000000
   17.03944397  120.26499939    4.90999985    2.75000000
   17.04249954  114.36799622    4.90999985    2.75000000
   17.04861069  114.36799622    4.90999985    2.73000002
   17.05277634  115.64499664    4.90999985    2.75000000
   17.05583191  122.35700226    4.90999985    2.73000002
   17.05916595  113.24500275    4.90999985    2.73000002
   17.06222153  109.94100189    4.90999985    2.73000002
   17.06555557  125.48400116    4.90999985    2.75000000
   17.06861115  120.42800140    4.90999985    2.75000000
   17.07194519  114.76699829    4.90999985    2.75000000
   17.07527924  111.10700226    4.90999985    2.73000002
   17.07833481  108.86900330    4.90999985    2.73000002
   17.08166695  108.59400177    4.90999985    2.73000002
   17.08472252  109.26100159    4.90999985    2.75000000
   17.08527756  105.80000305    4.90999985    2.73000002
   17.09138870  105.80000305    4.90999985    2.73000002
   17.09555626  109.72899628    4.90999985    2.75000000
   17.09861183  113.02500153    4.90999985    2.75000000
   17.10194397  108.29499817    4.90999985    2.75000000
   17.10527802  104.30400085    4.90999985    2.75000000
   17.10833359  108.83100128    4.90999985    2.75000000
   17.11166763  108.73100281    4.90999985    2.75000000
   17.11472321  120.53500366    4.90999985    2.75000000
   17.11805534  111.00499725    4.90999985    2.75000000
   17.11861038  110.11699677    4.90999985    2.75000000
   17.12166595  100.33999634    4.90999985    2.75000000
   17.12500000  115.70600128    4.90999985    2.75000000
   17.12805557  113.74900055    4.90999985    2.76999998
   17.13416672  113.74900055    4.90999985    2.75000000
   17.13833237  112.88500214    4.90999985    2.73000002
   17.14166641  113.72299957    4.90999985    2.75000000
   17.14472198  118.73100281    4.90999985    2.75000000
   17.14805603  118.08399963    4.90999985    2.75000000
   17.15111160  119.37599945    4.90999985    2.75000000
   17.15194321  116.67400360    4.90999985    2.73000002
   17.15472221  124.34200287    4.90999985    2.75000000
   17.15805435  122.45099640    4.90999985    2.73000002
   17.16110992  119.91400146    4.90999985    2.75000000
   17.16444397  118.94899750    4.90999985    2.75000000
   17.16749954  110.21399689    4.90999985    2.75000000
   17.17083359  114.43800354    4.90999985    2.75000000
   17.17722130  114.43800354    4.90999985    2.75000000
   17.18111038  110.28800201    4.90999985    2.75000000
   17.18444443  114.07499695    4.90999985    2.73000002
   17.18527603  112.44999695    4.90999985    2.75000000
   17.18805504  114.13500214    4.90999985    2.75000000
   17.19138718  120.73400116    4.90999985    2.76999998
   17.19444275  111.58699799    4.90999985    2.75000000
   17.19777679  118.20400238    4.90999985    2.75000000
   17.20083427  115.57499695    4.90999985    2.75000000
   17.20416832  106.26499939    4.90999985    2.75000000
   17.20750046  120.74299622    4.90999985    2.75000000
   17.21055603  112.92400360    4.90999985    2.75000000
   17.21389008   98.17479706    4.90999985    2.75000000
   17.22000122   98.17479706    4.90999985    2.75000000
   17.22416687  107.23300171    4.90999985    2.73000002
   17.22722244  114.29900360    4.90999985    2.76999998
   17.23055649  111.60900116    4.90999985    2.75000000
   17.23361206  107.18099976    4.90999985    2.75000000
   17.23694420  113.06700134    4.90999985    2.75000000
   17.23999977  122.72899628    4.90999985    2.75000000
   17.24333382  114.32800293    4.90999985    2.75000000
   17.24666786  125.36100006    4.90999985    2.75000000
   17.24972153  105.27799988    4.90999985    2.75000000
   17.25194359  121.62300110    4.90999985    2.75000000
   17.25333405  109.16799927    4.90999985    2.75000000
   17.25666618  112.80000305    4.90999985    2.75000000
   17.26277733  112.80000305    4.90999985    2.73000002
   17.26694489  111.92400360    4.90999985    2.75000000
   17.27000046  115.61100006    4.90999985    2.75000000
   17.27333260  116.93199921    4.90999985    2.75000000
   17.27666664  122.54599762    4.90999985    2.75000000
   17.27972221  112.53299713    4.90999985    2.75000000
   17.28305435  116.65699768    4.90999985    2.75000000
   17.28527641  104.33599854    4.90999985    2.75000000
   17.28666687  112.41500092    4.90999985    2.75000000
   17.28999901  110.86900330    4.90999985    2.75000000
   17.29305458   99.87999725    4.90999985    2.75000000
   17.29638863  115.04499817    4.90999985    2.75000000
   17.29944420  117.47399902    4.90999985    2.76999998
   17.30555534  117.47399902    4.90999985    2.75000000
   17.30972099  105.47499847    4.90999985    2.75000000
   17.31305504  117.04399872    4.90999985    2.75000000
   17.31611061  121.34100342    4.90999985    2.75000000
   17.31861115  118.04499817    4.90999985    2.75000000
   17.31972313  118.47499847    4.90999985    2.75000000
   17.32305717  112.80200195    4.90999985    2.75000000
   17.32611275  110.91100311    4.90999985    2.75000000
   17.32944489  113.46099854    4.90999985    2.75000000
   17.33250046  116.81199646    4.90999985    2.75000000
   17.33583450  108.93599701    4.90999985    2.75000000
   17.33916664  113.07199860    4.90999985    2.75000000
   17.34222221  110.81099701    4.90999985    2.75000000
   17.34833336  110.81099701    4.90999985    2.75000000
   17.35250092  122.91400146    4.90999985    2.75000000
   17.35583305  116.69200134    4.90999985    2.75000000
   17.35888863  112.68000031    4.90999985    2.73000002
   17.36222267  115.00099945    4.90999985    2.73000002
   17.36555672  111.05899811    4.90999985    2.75000000
   17.36861038  116.19300079    4.90999985    2.75000000
   17.37194443  113.97299957    4.90999985    2.73000002
   17.37500000  107.63400269    4.90999985    2.73000002
   17.37833405  103.44000244    4.90999985    2.75000000
   17.38166618   99.44280243    4.90999985    2.75000000
   17.38472176  101.47599792    4.90999985    2.75000000
   17.38527679  108.66999817    4.90999985    2.73000002
   17.39138794  108.66999817    4.90999985    2.73000002
   17.39555550  108.37899780    4.90999985    2.73000002
   17.39861107  115.70400238    4.90999985    2.73000002
   17.40194321  117.65200043    4.90999985    2.73000002
   17.40499878  113.49800110    4.90999985    2.73000002
   17.40833282  117.70600128    4.90999985    2.73000002
   17.41138840  114.58200073    4.90999985    2.73000002
   17.41472244  116.68099976    4.90999985    2.76999998
   17.41805458  117.39600372    4.90999985    2.73000002
   17.41888809  101.08999634    4.90999985    2.73000002
   17.42166519   85.28620148    4.90999985    2.73000002
   17.42499924   98.84470367    4.90999985    2.73000002
   17.42805481   91.16380310    4.90999985    2.73000002
   17.43416595   91.16380310    4.90999985    2.73000002
   17.43833160  119.11900330    4.90999985    2.75000000
   17.44138718  108.69799805    4.90999985    2.75000000
   17.44472122  108.30300140    4.90999985    2.73000002
   17.44805527  121.68199921    4.90999985    2.73000002
   17.45111275  107.48500061    4.90999985    2.73000002
   17.45222282  105.81999969    4.90999985    2.73000002
   17.45472336  108.91999817    4.90999985    2.73000002
   17.45805550  113.28099823    4.90999985    2.73000002
   17.46111107   92.95700073    4.90999985    2.73000002
   17.46444511  104.61799622    4.90999985    2.73000002
   17.46777916  101.30599976    4.90999985    2.73000002
   17.47083473  105.37500000    4.90999985    2.75000000
   17.47694588  105.37500000    4.90999985    2.75000000
   17.48111153  111.30599976    4.90999985    2.73000002
   17.48444557  110.25700378    4.90999985    2.75000000
   17.48555565  108.79100037    4.90999985    2.73000002
   17.48805618  106.57499695    4.90999985    2.75000000
   17.49138832  106.89900208    4.90999985    2.73000002
   17.49444389  113.70899963    4.90999985    2.73000002
   17.49777794  112.03299713    4.90999985    2.73000002
   17.50111198  105.31400299    4.90999985    2.75000000
   17.50416756  115.77500153    4.90999985    2.75000000
   17.50749969  100.52100372    4.90999985    2.75000000
   17.51055527  112.94400024    4.90999985    2.75000000
   17.51388931  116.63200378    4.90999985    2.75000000
   17.51972198  116.63200378    4.90999985    2.75000000
   17.52388954  101.30899811    4.90999985    2.75000000
   17.52722168  103.40399933    4.90999985    2.75000000
   17.53027725   99.41459656    4.90999985    2.73000002
   17.53361130  102.67600250    4.90999985    2.76999998
   17.53694344  104.68399811    4.90999985    2.75000000
   17.53999901  104.87500000    4.90999985    2.75000000
   17.54333305  114.09899902    4.90999985    2.75000000
   17.54638863   97.83869934    4.90999985    2.76999998
   17.54972076  105.83799744    4.90999985    2.76999998
   17.55222130  109.97200012    4.90999985    2.75000000
   17.55333328  109.32599640    4.90999985    2.75000000
   17.55666542  115.31900024    4.90999985    2.75000000
   17.56277657  115.31900024    4.90999985    2.75000000
   17.56666756  117.30999756    4.90999985    2.75000000
   17.57000160   98.72049713    4.90999985    2.73000002
   17.57333374  106.89600372    4.90999985    2.75000000
   17.57638931  104.92700195    4.90999985    2.75000000
   17.57972336   91.56150055    4.90999985    2.75000000
   17.58277893  111.17500305    4.90999985    2.75000000
   17.58555603   97.39070129    4.90999985    2.75000000
   17.58638954   98.79769897    4.90999985    2.75000000
   17.58972359  100.10600281    4.90999985    2.73000002
   17.59277916  109.68199921    4.90999985    2.75000000
   17.59611130   95.33840179    4.90999985    2.76999998
   17.59944534  101.66200256    4.90999985    2.75000000
   17.60555649  101.66200256    4.90999985    2.75000000
   17.60972214  106.97100067    4.90999985    2.75000000
   17.61277771  102.20800018    4.90999985    2.75000000
   17.61611176  104.56800079    4.90999985    2.75000000
   17.61888885  107.83399963    4.90999985    2.75000000
   17.61972237  102.85800171    4.90999985    2.73000002
   17.62305641   98.51609802    4.90999985    2.75000000
   17.62611198  101.36599731    4.90999985    2.73000002
   17.62944412   98.74160004    4.90999985    2.73000002
   17.63277817   93.23989868    4.90999985    2.73000002
   17.63583374  104.21399689    4.90999985    2.71000004
   17.63916588   98.75779724    4.90999985    2.69000006
   17.64222145  103.16400146    4.90999985    2.71000004
   17.64833260  103.16400146    4.90999985    2.73000002
   17.65250015  107.81900024    4.90999985    2.71000004
   17.65583229  109.00599670    4.90999985    2.73000002
   17.65888786  108.04100037    4.90999985    2.73000002
   17.66222191  113.73400116    4.90999985    2.71000004
   17.66527748  104.33000183    4.90999985    2.73000002
   17.66860962   99.46389771    4.90999985    2.69000006
   17.67166519  113.22200012    4.90999985    2.66000009
   17.67499924  109.38300323    4.90999985    2.64000010
   17.67833328  114.61000061    4.90999985    2.64000010
   17.68138885  108.03900146    4.90999985    2.67000008
   17.68472099  108.11100006    4.90999985    2.67000008
   17.68555450  107.63099670    4.90999985    2.64000010
   17.69111061  107.63099670    4.90999985    2.66000009
   17.69527626  105.68699646    4.90999985    2.67000008
   17.69861031  112.42500305    4.90999985    2.69000006
   17.70166779  114.73200226    4.90999985    2.67000008
   17.70499992  115.84500122    4.90999985    2.64000010
   17.70833397  111.03800201    4.90999985    2.61999989
   17.71138954  113.56199646    4.90999985    2.59999990
   17.71472359  102.34999847    4.90999985    2.59999990
   17.71805573  105.15899658    4.90999985    2.59999990
   17.71888924  108.38999939    4.90999985    2.59999990
   17.72138977  128.41900635    4.90999985    2.57999992
   17.72472191  120.85800171    4.90999985    2.51999998
   17.72777748  128.79699707    4.90999985    2.48000002
   17.73416710  128.79699707    4.90999985    2.44000006
   17.73833275  122.63200378    4.90999985    2.39000010
   17.74138832  126.46900177    4.90999985    2.40000010
   17.74472237  115.27600098    4.90999985    2.50000000
   17.74777794  118.09600067    4.90999985    2.46000004
   17.75111198  110.23400116    4.90999985    2.46000004
   17.75222206  116.57800293    4.90999985    2.51999998
   17.75472260  108.62699890    4.90999985    2.59999990
   17.75805473  111.21600342    4.90999985    2.59999990
   17.76111031  126.36599731    4.90999985    2.57999992
   17.76444435  113.64900208    4.90999985    2.55999994
   17.76777840  115.56500244    4.90999985    2.59999990
   17.77083397  116.41100311    4.90999985    2.57999992
   17.77694511  116.41100311    4.90999985    2.64000010
   17.78111076  104.86499786    4.90999985    2.64000010
   17.78416634  110.09400177    4.90999985    2.61999989
   17.78555489  110.52700043    4.90999985    2.64000010
   17.78777695   99.28869629    4.90999985    2.64000010
   17.79111099  106.24500275    4.90999985    2.61999989
   17.79444313  102.24600220    4.90999985    2.61999989
   17.79749870  111.45500183    4.90999985    2.64000010
   17.80083275  118.41999817    4.90999985    2.61999989
   17.80388832  115.15499878    4.90999985    2.59999990
   17.80722237  115.42900085    4.90999985    2.55999994
   17.81055450  125.75199890    4.90999985    2.57999992
   17.81361008  137.00599670    4.90999985    2.64000010
   17.81972313  137.00599670    4.90999985    2.67000008
   17.82389069  115.93000031    4.90999985    2.64000010
   17.82722282  110.42700195    4.90999985    2.64000010
   17.83027840  121.60500336    4.90999985    2.64000010
   17.83361244  120.29199982    4.90999985    2.61999989
   17.83666801  107.56400299    4.90999985    2.55999994
   17.84000015  105.15299988    4.90999985    2.53999996
   17.84305573  116.09100342    4.90999985    2.51999998
   17.84638977  108.66699982    4.90999985    2.50000000
   17.84972191  112.05999756    4.90999985    2.53999996
   17.85222244  102.45600128    4.90999985    2.57999992
   17.85305595  102.78600311    4.90999985    2.55999994
   17.85639000   86.83249664    4.90999985    2.53999996
   17.86250114   86.83249664    4.90999985    2.53999996
   17.86666679  111.24199677    4.90999985    2.51999998
   17.87000084  114.56700134    4.90999985    2.50000000
   17.87305641  120.56300354    4.90999985    2.50000000
   17.87638855  108.12500000    4.90999985    2.50000000
   17.87972260  120.42600250    4.90999985    2.53999996
   17.88277817  124.53600311    4.90999985    2.48000002
   17.88555527  108.47000122    4.90999985    2.51999998
   17.88638878  114.21299744    4.90999985    2.53999996
   17.88972282  117.20400238    4.90999985    2.53999996
   17.89277840  124.67900085    4.90999985    2.50000000
   17.89611053  117.33100128    4.90999985    2.50000000
   17.89944458  117.15899658    4.90999985    2.55999994
   17.90555573  117.15899658    4.90999985    2.57999992
   17.90944481  103.18000031    4.90999985    2.61999989
   17.91277695  105.08399963    4.90999985    2.59999990
   17.91611099  107.51399994    4.90999985    2.59999990
   17.91888809  100.98200226    4.90999985    2.57999992
   17.91944313  109.41600037    4.90999985    2.57999992
   17.92277718  105.49199677    4.90999985    2.53999996
   17.92611122  107.81800079    4.90999985    2.50000000
   17.92916679   91.99099731    4.90999985    2.51999998
   17.93249893  117.75000000    4.90999985    2.51999998
   17.93555450  115.53399658    4.90999985    2.48000002
   17.93888855  115.96199799    4.90999985    2.46000004
   17.94194412  121.10299683    4.90999985    2.42000008
   17.94833183  121.10299683    4.90999985    2.46000004
   17.95250130  109.29000092    4.90999985    2.46000004
   17.95555687  109.35900116    4.90999985    2.48000002
   17.95888901  105.88300323    4.90999985    2.44000006
   17.96194458  109.18000031    4.90999985    2.42000008
   17.96527863  116.79100037    4.90999985    2.42000008
   17.96861076  124.25499725    4.90999985    2.39000010
   17.97166634  111.56400299    4.90999985    2.36999989
   17.97500038  126.12899780    4.90999985    2.34999990
   17.97805595  121.12000275    4.90999985    2.36999989
   17.98139000  125.13800049    4.90999985    2.34999990
   17.98472214  115.82700348    4.90999985    2.36999989
   17.98555565  119.25499725    4.90999985    2.34999990
   17.99111176  119.25499725    4.90999985    2.40000010
   17.99527740  107.64800262    4.90999985    2.36999989
   17.99861145  113.95099640    4.90999985    2.40000010
   18.00166702  110.68499756    4.90999985    2.40000010
   18.01916695  110.87100220    4.90999985    2.46000004
   18.02166557   88.81639862    4.90999985    2.44000006
   18.02499962   92.05220032    4.90999985    2.44000006
   18.02805519  114.01999664    4.90999985    2.50000000
   18.03416634  114.01999664    4.90999985    2.46000004
   18.03833199  110.01399994    4.90999985    2.44000006
   18.04138756   99.91069794    4.90999985    2.40000010
   18.04472160   98.14790344    4.90999985    2.42000008
   18.04805565  109.78099823    4.90999985    2.40000010
   18.05111122  104.85199738    4.90999985    2.42000008
   18.05249977  100.23000336    4.90999985    2.44000006
   18.05499840   98.15390015    4.90999985    2.46000004
   18.05833244  106.55200195    4.90999985    2.44000006
   18.06138802  101.85900116    4.90999985    2.44000006
   18.06472206  107.01499939    4.90999985    2.48000002
   18.06777954   99.24729919    4.90999985    2.48000002
   18.07111168   85.71600342    4.90999985    2.50000000
   18.07694626   85.71600342    4.90999985    2.53999996
   18.08111191   89.99720001    4.90999985    2.53999996
   18.08444595   90.03959656    4.90999985    2.51999998
   18.08583450   95.72440338    4.90999985    2.51999998
   18.08805656   98.18900299    4.90999985    2.53999996
   18.09111214   92.21029663    4.90999985    2.53999996
   18.09444427   94.00460052    4.90999985    2.55999994
   18.09749985   88.99140167    4.90999985    2.55999994
   18.10083389   95.87169647    4.90999985    2.57999992
   18.10416794  100.45899963    4.90999985    2.57999992
   18.10722351  101.98999786    4.90999985    2.59999990
   18.11055565   98.48899841    4.90999985    2.59999990
   18.11361122  101.50299835    4.90999985    2.59999990
   18.12000084  101.50299835    4.90999985    2.53999996
   18.12388992  111.73899841    4.90999985    2.53999996
   18.12722206   85.57140350    4.90999985    2.51999998
   18.13055611  107.18199921    4.90999985    2.46000004
   18.13361168   90.93509674    4.90999985    2.48000002
   18.13694382  104.44000244    4.90999985    2.46000004
   18.13999939   99.94680023    4.90999985    2.42000008
   18.14333344   83.83660126    4.90999985    2.44000006
   18.14666748  114.65299988    4.90999985    2.48000002
   18.14972115  104.34500122    4.90999985    2.48000002
   18.15250015  105.99500275    4.90999985    2.48000002
   18.15333366   96.16310120    4.90999985    2.46000004
   18.15638924  113.00199890    4.90999985    2.48000002
   18.16277695  113.00199890    4.90999985    2.44000006
   18.16694450   88.25630188    4.90999985    2.48000002
   18.17000008  119.74600220    4.90999985    2.46000004
   18.17333221  107.37300110    4.90999985    2.46000004
   18.17638779  119.01499939    4.90999985    2.42000008
   18.17972183  111.44999695    4.90999985    2.42000008
   18.18305397  118.75000000    4.90999985    2.44000006
   18.18583298   97.54239655    4.90999985    2.44000006
   18.18666649  103.07099915    4.90999985    2.42000008
   18.18972206   96.81469727    4.90999985    2.46000004
   18.19305420  112.09999847    4.90999985    2.46000004
   18.19638824   93.16290283    4.90999985    2.48000002
   18.19944382  106.21099854    4.90999985    2.46000004
   18.20555687  106.21099854    4.90999985    2.46000004
   18.20972252  121.54499817    4.90999985    2.44000006
   18.21277809  121.04900360    4.90999985    2.39000010
   18.21611214  114.63099670    4.90999985    2.36999989
   18.21916771  111.97899628    4.90999985    2.40000010
   18.21972275  105.53399658    4.90999985    2.40000010
   18.22305679  109.40499878    4.90999985    2.40000010
   18.22611237  109.77200317    4.90999985    2.36999989
   18.22944450  104.13500214    4.90999985    2.39000010
   18.23250008  119.23699951    4.90999985    2.36999989
   18.23583412  114.36799622    4.90999985    2.34999990
   18.23916626  125.68800354    4.90999985    2.34999990
   18.24222183  128.05999756    4.90999985    2.36999989
   18.24833298  128.05999756    4.90999985    2.30999994
   18.25250053  134.00100708    4.90999985    2.28999996
   18.25583267  125.15100098    4.90999985    2.23000002
   18.25888824  163.25900269    4.90999985    2.26999998
   18.26222229  155.76499939    4.90999985    2.25000000
   18.26555634  160.58299255    4.90999985    2.25000000
   18.26861000  169.02699280    4.90999985    2.19000006
   18.27194405  163.12500000    4.90999985    2.17000008
   18.27499962  172.82400513    4.90999985    2.15000010
   18.27833366  199.73399353    4.90999985    2.19000006
   18.28138924  187.08399963    4.90999985    2.15000010
   18.28472137  167.69700623    4.90999985    2.15000010
   18.28583336  159.36000061    4.90999985    2.23000002
   18.29138756  159.36000061    4.90999985    2.23000002
   18.29555511  135.17599487    4.90999985    2.25000000
   18.29861069  138.33200073    4.90999985    2.26999998
   18.30194283  148.57099915    4.90999985    2.25000000
   18.30499840  137.12199402    4.90999985    2.23000002
   18.30833244  134.65400696    4.90999985    2.25000000
   18.31138802  135.36399841    4.90999985    2.26999998
   18.31472206  162.77999878    4.90999985    2.30999994
   18.31805611  151.71899414    4.90999985    2.21000004
   18.31916809  151.90400696    4.90999985    2.23000002
   18.32166672  129.99499512    4.90999985    2.25000000
   18.32472229  163.60800171    4.90999985    2.32999992
   18.32805634  157.11300659    4.90999985    2.23000002
   18.33416748  157.11300659    4.90999985    2.21000004
   18.33833313   90.83190155    4.90999985    2.30999994
   18.34138870  121.29799652    4.90999985    2.40000010
   18.34472275  116.45800018    4.90999985    2.39000010
   18.34777832  122.37699890    4.90999985    2.40000010
   18.35111237  122.83999634    4.90999985    2.42000008
   18.35250092  108.53600311    4.90999985    2.40000010
   18.35472298  127.85700226    4.90999985    2.40000010
   18.35777855  116.97299957    4.90999985    2.40000010
   18.36111069  122.09700012    4.90999985    2.42000008
   18.36444473   92.21279907    4.90999985    2.40000010
   18.36750031  103.33999634    4.90999985    2.44000006
   18.37083435  104.36100006    4.90999985    2.51999998
   18.37694550  104.36100006    4.90999985    2.46000004
   18.38111115  109.31099701    4.90999985    2.51999998
   18.38444519  109.81600189    4.90999985    2.46000004
   18.38583374  119.56400299    4.90999985    2.46000004
   18.38805580  119.01799774    4.90999985    2.48000002
   18.39138794  129.58700562    4.90999985    2.42000008
   18.39444351  113.61100006    4.90999985    2.44000006
   18.39777756  104.02100372    4.90999985    2.44000006
   18.40111160  113.63800049    4.90999985    2.46000004
   18.40416718  115.97899628    4.90999985    2.48000002
   18.40749931  111.23000336    4.90999985    2.48000002
   18.41055489  115.69000244    4.90999985    2.51999998
   18.41388893  108.66699982    4.90999985    2.44000006
   18.41972160  108.66699982    4.90999985    2.50000000
   18.42388916  105.77899933    4.90999985    2.53999996
   18.42722130  117.03099823    4.90999985    2.53999996
   18.43027687  122.48999786    4.90999985    2.57999992
   18.43361092  116.89700317    4.90999985    2.57999992
   18.43694305  106.86100006    4.90999985    2.51999998
   18.43999863  102.75199890    4.90999985    2.55999994
   18.44333267  105.16699982    4.90999985    2.53999996
   18.44638824  100.91699982    4.90999985    2.57999992
   18.44972038  110.54699707    4.90999985    2.51999998
   18.45250130  114.91300201    4.90999985    2.50000000
   18.45333481  110.74400330    4.90999985    2.48000002
   18.45666695  107.90799713    4.90999985    2.51999998
   18.46277809  107.90799713    4.90999985    2.46000004
   18.46666718  123.84500122    4.90999985    2.46000004
   18.47000122   91.79799652    4.90999985    2.51999998
   18.47333336  116.10900116    4.90999985    2.51999998
   18.47638893  106.28600311    4.90999985    2.51999998
   18.47972298  104.81800079    4.90999985    2.55999994
   18.48277855  119.66000366    4.90999985    2.59999990
   18.48583412   98.68720245    4.90999985    2.51999998
   18.48638916  103.36100006    4.90999985    2.51999998
   18.48972321  112.64399719    4.90999985    2.61999989
   18.49277878  116.34799957    4.90999985    2.46000004
   18.49611092   95.56999969    4.90999985    2.55999994
   18.49916649  112.10900116    4.90999985    2.55999994
   18.50555611  112.10900116    4.90999985    2.61999989
   18.50972176  107.60199738    4.90999985    2.59999990
   18.51277733  102.46199799    4.90999985    2.61999989
   18.51611137   97.38770294    4.90999985    2.61999989
   18.51916695  108.26100159    4.90999985    2.51999998
   18.51972198  112.17500305    4.90999985    2.51999998
   18.52305603  103.11900330    4.90999985    2.61999989
   18.52611160  108.66500092    4.90999985    2.61999989
   18.52944374  103.34999847    4.90999985    2.61999989
   18.53249931  104.16899872    4.90999985    2.64000010
   18.53583336  106.32499695    4.90999985    2.61999989
   18.53888893  117.97200012    4.90999985    2.64000010
   18.54222107   99.44740295    4.90999985    2.57999992
   18.54833221   99.44740295    4.90999985    2.59999990
   18.55249977   93.75710297    4.90999985    2.57999992
   18.55305481  102.73200226    4.90999985    2.59999990
   18.55638885  110.69000244    4.90999985    2.55999994
   18.55944443   99.49669647    4.90999985    2.48000002
   18.56277657  104.21199799    4.90999985    2.53999996
   18.56583214   93.90589905    4.90999985    2.57999992
   18.56916809   94.32790375    4.90999985    2.57999992
   18.57250023  102.87699890    4.90999985    2.55999994
   18.57555580  100.85199738    4.90999985    2.53999996
   18.57888985  110.34200287    4.90999985    2.42000008
   18.58194542   87.10379791    4.90999985    2.50000000
   18.58527756  108.43099976    4.90999985    2.55999994
   18.58638954   95.06199646    4.90999985    2.57999992
   18.59111214   95.06199646    4.90999985    2.55999994
   18.59527779  113.66799927    4.90999985    2.55999994
   18.59861183  118.53600311    4.90999985    2.51999998
   18.60166740   96.99230194    4.90999985    2.55999994
   18.60499954   99.54620361    4.90999985    2.51999998
   18.60805511  107.66100311    4.90999985    2.55999994
   18.61138916  106.40299988    4.90999985    2.51999998
   18.61472321  104.70300293    4.90999985    2.55999994
   18.61777878   95.45800018    4.90999985    2.55999994
   18.61972237  115.22599792    4.90999985    2.53999996
   18.62138939  115.81300354    4.90999985    2.44000006
   18.62472153  114.01799774    4.90999985    2.48000002
   18.62805557  107.21399689    4.90999985    2.51999998
   18.63416672  107.21399689    4.90999985    2.55999994
   18.63805580   99.94090271    4.90999985    2.50000000
   18.64138794  103.76200104    4.90999985    2.50000000
   18.64472198  102.11699677    4.90999985    2.48000002
   18.64777756   93.33470154    4.90999985    2.48000002
   18.65111160   96.03230286    4.90999985    2.50000000
   18.65305519   96.50559998    4.90999985    2.48000002
   18.65472221  102.48200226    4.90999985    2.46000004
   18.65777779   96.50559998    4.90999985    2.48000002
   18.66110992   97.36569977    4.90999985    2.46000004
   18.66416550   99.98840332    4.90999985    2.50000000
   18.66749954  113.10099792    4.90999985    2.50000000
   18.67055511  103.07199860    4.90999985    2.48000002
   18.67694473  103.07199860    4.90999985    2.50000000
   18.68111038  108.55000305    4.90999985    2.48000002
   18.68416595  103.54100037    4.90999985    2.48000002
   18.68638802  107.43399811    4.90999985    2.46000004
   18.68805504  105.71399689    4.90999985    2.48000002
   18.69111061  104.51799774    4.90999985    2.42000008
   18.69444275  102.45800018    4.90999985    2.28999996
   18.69749832  106.32900238    4.90999985    2.36999989
   18.70083427  100.76000214    4.90999985    2.51999998
   18.70388985  102.64700317    4.90999985    2.50000000
   18.70722389   96.11589813    4.90999985    2.44000006
   18.71055603  156.12100220    4.90999985    2.28999996
   18.71361160  201.27900696    4.90999985    2.11999989
   18.71972275  201.27900696    4.90999985    2.21000004
   18.72389030  107.16100311    4.90999985    2.26999998
   18.72694588  102.83000183    4.90999985    2.34999990
   18.73027802  113.67500305    4.90999985    2.42000008
   18.73361206  114.99299622    4.90999985    2.46000004
   18.73666763  114.54900360    4.90999985    2.46000004
   18.73999977  112.69799805    4.90999985    2.34999990
   18.74305534  112.19300079    4.90999985    2.40000010
   18.74638939  100.17099762    4.90999985    2.34999990
   18.74972153  113.05500031    4.90999985    2.40000010
   18.75277710   92.90149689    4.90999985    2.50000000
   18.75333405   97.12229919    4.90999985    2.51999998
   18.75666618  106.71800232    4.90999985    2.51999998
   18.76250076  106.71800232    4.90999985    2.61999989
   18.76666641   99.89849854    4.90999985    2.57999992
   18.77000046   89.94509888    4.90999985    2.53999996
   18.77305603   97.99859619    4.90999985    2.53999996
   18.77638817   95.15129852    4.90999985    2.64000010
   18.77944374   85.47599792    4.90999985    2.69000006
   18.78277779  108.96099854    4.90999985    2.55999994
   18.78610992   99.34929657    4.90999985    2.51999998
   18.78666687  103.25299835    4.90999985    2.53999996
   18.78972244   89.27529907    4.90999985    2.53999996
   18.79277802  124.21900177    4.90999985    2.53999996
   18.79611015  129.96200562    4.90999985    2.44000006
   18.79916573  117.27999878    4.90999985    2.50000000
   18.80555534  117.27999878    4.90999985    2.64000010
   18.80944443   96.51049805    4.90999985    2.67000008
   18.81277657  109.87400055    4.90999985    2.61999989
   18.81611061   91.71569824    4.90999985    2.59999990
   18.81916809   97.83010101    4.90999985    2.57999992
   18.82000160   96.19760132    4.90999985    2.57999992
   18.82277870  102.16799927    4.90999985    2.51999998
   18.82583427   98.52010345    4.90999985    2.48000002
   18.82916832   88.57800293    4.90999985    2.51999998
   18.83222389   94.55049896    4.90999985    2.55999994
   18.83555603   94.85230255    4.90999985    2.64000010
   18.83889008  104.40100098    4.90999985    2.61999989
   18.84194565  103.91699982    4.90999985    2.53999996
   18.84833336  103.91699982    4.90999985    2.51999998
   18.85250092  101.43000031    4.90999985    2.50000000
   18.85333443  103.73699951    4.90999985    2.51999998
   18.85611153   98.77860260    4.90999985    2.50000000
   18.85916710  103.39499664    4.90999985    2.48000002
   18.86250114  107.41000366    4.90999985    2.44000006
   18.86555672  115.97200012    4.90999985    2.42000008
   18.86888885  104.06400299    4.90999985    2.46000004
   18.87222290   91.92929840    4.90999985    2.40000010
   18.87527847  106.21800232    4.90999985    2.40000010
   18.87861061  110.34700012    4.90999985    2.36999989
   18.88166618  107.97899628    4.90999985    2.28999996
   18.88500023  132.56900024    4.90999985    2.23000002
   18.88666725  118.49500275    4.90999985    2.23000002
   18.89111137  118.49500275    4.90999985    2.05999994
   18.89527702  132.13200378    4.90999985    2.05999994
   18.89833260   99.68930054    4.90999985    2.23000002
   18.90166664  136.19200134    4.90999985    2.23000002
   18.90499878  105.60500336    4.90999985    2.19000006
   18.90805435  113.73300171    4.90999985    2.32999992
   18.91138840  146.95799255    4.90999985    2.23000002
   18.91444397  130.00399780    4.90999985    2.26999998
   18.91777802  124.29599762    4.90999985    2.30999994
   18.92000008  102.26300049    4.90999985    2.28999996
   18.92138863   93.20169830    4.90999985    2.39000010
   18.92444420   94.79650116    4.90999985    2.42000008
   18.92777634  100.21600342    4.90999985    2.39000010
   18.93388748  100.21600342    4.90999985    2.34999990
   18.93805504   97.76319885    4.90999985    2.30999994
   18.94138718  126.47399902    4.90999985    2.23000002
   18.94444275  118.85199738    4.90999985    2.23000002
   18.94777679  109.18099976    4.90999985    2.17000008
   18.95083427  108.45200348    4.90999985    2.28999996
   18.95333481  110.29900360    4.90999985    2.28999996
   18.95472336  118.30599976    4.90999985    2.28999996
   18.95777893  114.93199921    4.90999985    2.23000002
   18.96111107  132.61500549    4.90999985    2.19000006
   18.96444511  111.29599762    4.90999985    2.21000004
   18.96750069  139.63800049    4.90999985    2.25000000
   18.97083473  136.82099915    4.90999985    2.28999996
   18.97666740  136.82099915    4.90999985    2.21000004
   18.98083305  110.23100281    4.90999985    2.28999996
   18.98416710   96.66660309    4.90999985    2.25000000
   18.98666763  111.76999664    4.90999985    2.32999992
   18.98777771  130.33200073    4.90999985    2.30999994
   18.99111176  104.86100006    4.90999985    2.19000006
   18.99416733  121.94200134    4.90999985    2.25000000
   18.99749947  132.28999329    4.90999985    2.28999996
   19.00055504  126.98999786    4.90999985    2.36999989
   19.00388908  105.50599670    4.90999985    2.32999992
   19.00722313  129.33799744    4.90999985    2.36999989
   19.01027870  117.35399628    4.90999985    2.30999994
   19.01361084  114.58399963    4.90999985    2.25000000
   19.01972198  114.58399963    4.90999985    2.21000004
   19.03805542  166.96400452    4.90999985    2.03999996
   19.04138756  202.25399780    4.90999985    2.07999992
   19.04444313  233.88699341    4.90999985    2.03999996
   19.04777718  157.91400146    4.90999985    2.05999994
   19.05083275  214.38699341    4.90999985    2.07999992
   19.05416679  226.14399719    4.90999985    2.00000000
   19.05722237  243.90100098    4.90999985    2.01999998
   19.06277657  243.90100098    4.90999985    2.01999998
   19.06694603  197.74499512    4.90999985    2.05999994
   19.07000160  175.58000183    4.90999985    2.05999994
   19.07111168  158.55099487    4.90999985    2.05999994
   19.07389069  189.05299377    4.90999985    2.03999996
   19.07694626  227.46600342    4.90999985    2.05999994
   19.08027840  182.35600281    4.90999985    2.07999992
   19.08333397  297.87100220    4.90999985    1.85000002
   19.08666801  322.96499634    4.90999985    1.94000006
   19.08861160  195.86999512    4.90999985    1.96000004
   19.08889008  226.14399719    4.90999985    2.00000000
   19.08889008  243.90100098    4.90999985    2.01999998
   19.08889008  197.74499512    4.90999985    2.05999994
   19.08916664  175.58000183    4.90999985    2.05999994
   19.08916664  189.05299377    4.90999985    2.03999996
   19.08916664  227.46600342    4.90999985    2.05999994
   19.08944511  182.35600281    4.90999985    2.07999992
   19.08944511  297.87100220    4.90999985    1.85000002
   19.08944511  322.96499634    4.90999985    1.94000006
   19.09138870  242.19700623    4.90999985    2.03999996
   19.09444427  265.93499756    4.90999985    2.01999998
   19.09777832  361.33700562    4.90999985    2.00000000
   19.09972191  339.13198853    4.90999985    1.98000002
   19.10111237  375.14099121    4.90999985    1.98000002
   19.10250092  341.72799683    4.90999985    2.00000000
   19.10388947  313.08801270    4.90999985    2.00000000
   19.10527802  269.07598877    4.90999985    1.98000002
   19.10666656  376.91198730    4.90999985    1.96000004
   19.10805511  312.08300781    4.90999985    1.91999996
   19.10944557  319.09100342    4.90999985    1.96000004
   19.11083412  299.08999634    4.90999985    1.98000002
   19.11222267  239.86099243    4.90999985    2.00000000
   19.11222267  242.19700623    4.90999985    2.03999996
   19.11222267  265.93499756    4.90999985    2.01999998
   19.11250114  361.33700562    4.90999985    2.00000000
   19.11305618  328.06600952    4.90999985    2.00000000
   19.11499977  353.46701050    4.90999985    2.03999996
   19.11638832  318.33499146    4.90999985    2.01999998
   19.11777878  290.37701416    4.90999985    2.00000000
   19.11916733  390.58898926    4.90999985    1.98000002
   19.12055588  369.25100708    4.90999985    1.98000002
   19.12194443  420.96200562    4.90999985    1.96000004
   19.12333298  444.11898804    4.90999985    1.96000004
   19.12472153  344.05200195    4.90999985    1.96000004
   19.12611198  193.94299316    4.90999985    1.94000006
   19.12611198  328.06600952    4.90999985    2.00000000
   19.12666702  249.17199707    4.90999985    1.91999996
   19.13000107  318.65600586    4.90999985    1.94000006
   19.13194466  230.30200195    4.90999985    1.98000002
   19.13222313  249.17199707    4.90999985    1.91999996
   19.13222313  318.65600586    4.90999985    1.94000006
   19.13388824  255.72900391    4.90999985    2.00000000
   19.13722229  156.95300293    4.90999985    1.96000004
   19.14027786  362.86499023    4.90999985    1.89999998
   19.14222145  345.90499878    4.90999985    1.94000006
   19.14361191  351.92199707    4.90999985    1.96000004
   19.14500046  324.19000244    4.90999985    1.96000004
   19.14638901  295.20700073    4.90999985    1.96000004
   19.14777756  300.84100342    4.90999985    1.94000006
   19.14916611  338.92498779    4.90999985    1.91999996
   19.15055466  270.37899780    4.90999985    1.91999996
   19.15194321  267.52398682    4.90999985    1.94000006
   19.15333366  307.46301270    4.90999985    1.91999996
   19.15472221  270.71398926    4.90999985    1.91999996
   19.15611076  259.08700562    4.90999985    1.91999996
   19.15749931  340.75698853    4.90999985    1.91999996
   19.15888786  222.66400146    4.90999985    1.94000006
   19.15916634  255.72900391    4.90999985    2.00000000
   19.15916634  156.95300293    4.90999985    1.96000004
   19.15916634  362.86499023    4.90999985    1.89999998
   19.15972137  273.43200684    4.90999985    1.94000006
   19.16305542  261.65200806    4.90999985    1.94000006
   19.16611099  252.57899475    4.90999985    1.94000006
   19.16944313  259.40899658    4.90999985    1.96000004
   19.17277718  349.37701416    4.90999985    1.94000006
   19.17472076  299.63900757    4.90999985    1.91999996
   19.17611122  325.67199707    4.90999985    1.91999996
   19.17749977  301.56698608    4.90999985    1.94000006
   19.17888832  186.09599304    4.90999985    1.89999998
   19.17888832  273.43200684    4.90999985    1.94000006
   19.17888832  261.65200806    4.90999985    1.94000006
   19.17916679  252.57899475    4.90999985    1.94000006
   19.17916679  259.40899658    4.90999985    1.96000004
   19.17916679  349.37701416    4.90999985    1.94000006
   19.17972183  100.16000366    4.90999985    1.89999998
   19.18305397  216.56599426    4.90999985    1.85000002
   19.18638802  265.97799683    4.90999985    0.09000000
   19.18944359  286.40100098    4.90999985    1.91999996
   19.19277763   83.76959991    4.90999985    1.89999998
   19.19972038   83.76959991    4.90999985    1.85000002
   19.20361137  137.04400635    4.90999985    1.86000001
   19.20694542   86.76840210    4.90999985    1.85000002
   19.21027946  103.99099731    4.90999985    1.80999994
   19.21277809   71.20359802    4.90999985    1.80999994
   19.21361160   -1.00000000    4.90999985    1.80999994
   19.21694565   -1.00000000    4.90999985    1.76999998
   19.22000122   75.19529724    4.90999985    1.78999996
   19.22333336  171.26600647    4.90999985    1.80999994
   19.22666740  178.31300354    4.90999985    1.86000001
   19.22972298  231.25700378    4.90999985    1.88000000
   19.23305511  240.71000671    4.90999985    1.94000006
   19.23611069  209.48399353    4.90999985    1.98000002
   19.24250031  209.48399353    4.90999985    1.98000002
   19.24666786  291.32299805    4.90999985    1.96000004
   19.24972153  195.41999817    4.90999985    1.91999996
   19.25305557  277.42599487    4.90999985    1.88000000
   19.25611115  248.49899292    4.90999985    1.88000000
   19.25944519  322.16799927    4.90999985    1.88000000
   19.26138878  156.77499390    4.90999985    1.89999998
   19.26166725  277.42599487    4.90999985    1.88000000
   19.26166725  248.49899292    4.90999985    1.88000000
   19.26166725  322.16799927    4.90999985    1.88000000
   19.26194382  178.31300354    4.90999985    1.86000001
   19.26194382  231.25700378    4.90999985    1.88000000
   19.26194382  240.71000671    4.90999985    1.94000006
   19.26222229  209.48399353    4.90999985    1.98000002
   19.26222229  291.32299805    4.90999985    1.96000004
   19.26250076  195.41999817    4.90999985    1.91999996
   19.26416588  155.21800232    4.90999985    1.86000001
   19.26722145  251.85899353    4.90999985    1.85000002
   19.27055550  164.79299927    4.90999985    1.83000004
   19.27361107  176.63900757    4.90999985    1.83000004
   19.27694511  321.07901001    4.90999985    1.88000000
   19.27888870  202.51300049    4.90999985    1.91999996
   19.27916718  155.21800232    4.90999985    1.86000001
   19.27916718  251.85899353    4.90999985    1.85000002
   19.27916718  164.79299927    4.90999985    1.83000004
   19.27944374  176.63900757    4.90999985    1.83000004
   19.27944374  321.07901001    4.90999985    1.88000000
   19.28111076  239.52799988    4.90999985    1.91999996
   19.28444481  302.76300049    4.90999985    1.91999996
   19.28638840  304.73300171    4.90999985    1.91999996
   19.28777695  333.83700562    4.90999985    1.91999996
   19.28916550  233.64300537    4.90999985    0.01000000
   19.28916550  239.52799988    4.90999985    1.91999996
   19.28916550  302.76300049    4.90999985    1.91999996
   19.28972244  212.36500549    4.90999985    0.01000000
   19.29305458  277.92700195    4.90999985    1.91999996
   19.29638863  265.11300659    4.90999985    1.89999998
   19.29944420  180.54100037    4.90999985    1.96000004
   19.30277634  192.80700684    4.90999985    2.01999998
   19.30583191  157.20899963    4.90999985    2.07999992
   19.30999947  157.20899963    4.90999985    2.07999992
   19.31416512  147.43299866    4.90999985    2.07999992
   19.31750107  163.65199280    4.90999985    2.11999989
   19.32055664  168.78900146    4.90999985    2.11999989
   19.32305717  161.19000244    4.90999985    2.07999992
   19.32416725  200.53999329    4.90999985    2.05999994
   19.32750130  175.03199768    4.90999985    2.00000000
   19.33055687  189.24200439    4.90999985    2.00000000
   19.33388901  178.02099609    4.90999985    2.00000000
   19.33722305  149.49800110    4.90999985    2.01999998
   19.34027863  147.80799866    4.90999985    2.07999992
   19.34361267  143.09899902    4.90999985    2.09999990
   19.34666824  132.02499390    4.90999985    2.11999989
   19.35305595  132.02499390    4.90999985    2.09999990
   19.35694504  113.98699951    4.90999985    2.23000002
   19.36027908  110.33300018    4.90999985    2.26999998
   19.36361122   98.89959717    4.90999985    2.36999989
   19.36666679   84.54380035    4.90999985    2.48000002
   19.37000084   90.06549835    4.90999985    2.55999994
   19.37305641   94.39230347    4.90999985    2.61999989
   19.37638855   85.68280029    4.90999985    2.73000002
   19.37944412   88.10330200    4.90999985    2.53999996
   19.38277817   98.79039764    4.90999985    2.64000010
   19.38611031   84.12819672    4.90999985    2.71000004
   19.38916588   87.43869781    4.90999985    2.73000002
   19.38972282   96.17539978    4.90999985    2.71000004
   19.39583397   96.17539978    4.90999985    2.78999996
   19.39999962   87.41560364    4.90999985    2.73000002
   19.40305519   96.33719635    4.90999985    2.75000000
   19.40638924  101.17099762    4.90999985    2.73000002
   19.40944481   95.29370117    4.90999985    2.73000002
   19.41277695  102.59600067    4.90999985    2.71000004
   19.41611099  109.13300323    4.90999985    2.73000002
   19.41916656  102.35800171    4.90999985    2.73000002
   19.42249870   96.70089722    4.90999985    2.73000002
   19.42305565   91.70410156    4.90999985    2.71000004
   19.42611122   98.57109833    4.90999985    2.71000004
   19.42916679   99.38169861    4.90999985    2.71000004
   19.43249893   95.68949890    4.90999985    2.71000004
   19.43861008   95.68949890    4.90999985    2.71000004
   19.44277763   91.45880127    4.90999985    2.71000004
   19.44583321   89.06690216    4.90999985    2.69000006
   19.44916534   92.41699982    4.90999985    2.69000006
   19.45250130  103.01699829    4.90999985    2.69000006
   19.45555687  101.98300171    4.90999985    2.69000006
   19.45639038   91.29869843    4.90999985    2.69000006
   19.45916748  103.19300079    4.90999985    2.69000006
   19.46222305   97.16020203    4.90999985    2.69000006
   19.46555710  107.58499908    4.90999985    2.69000006
   19.46888924  103.92700195    4.90999985    2.69000006
   19.47194481   98.52420044    4.90999985    2.67000008
   19.47527885   94.40460205    4.90999985    2.67000008
   19.48139000   94.40460205    4.90999985    2.69000006
   19.48555565  101.52500153    4.90999985    2.67000008
   19.48888969  109.47499847    4.90999985    2.67000008
   19.48972321  100.26399994    4.90999985    2.69000006
   19.49250031   99.06839752    4.90999985    2.67000008
   19.49555588   97.52600098    4.90999985    2.67000008
   19.49888992   89.99490356    4.90999985    2.67000008
   19.50222206   91.02030182    4.90999985    2.67000008
   19.50527763   89.86419678    4.90999985    2.67000008
   19.50861168   97.02970123    4.90999985    2.67000008
   19.51166725   99.94090271    4.90999985    2.67000008
   19.51499939   97.77069855    4.90999985    2.67000008
   19.51805496   94.45050049    4.90999985    2.67000008
   19.52416611   94.45050049    4.90999985    2.67000008
   19.52833366  102.85800171    4.90999985    2.67000008
   19.53166580  104.44000244    4.90999985    2.66000009
   19.53472137   94.21640015    4.90999985    2.66000009
   19.53805542  100.47599792    4.90999985    2.66000009
   19.54138756   95.54820251    4.90999985    2.66000009
   19.54444313   93.80740356    4.90999985    2.67000008
   19.54777718  101.02500153    4.90999985    2.66000009
   19.55083275   99.38269806    4.90999985    2.66000009
   19.55416679   99.62909698    4.90999985    2.66000009
   19.55638885   96.58049774    4.90999985    2.66000009
   19.55777740   95.22840118    4.90999985    2.66000009
   19.56083298   93.70249939    4.90999985    2.67000008
   19.56722260   93.70249939    4.90999985    2.66000009
   19.57139015   99.33969879    4.90999985    2.67000008
   19.57444572  108.38400269    4.90999985    2.66000009
   19.57777786  110.67099762    4.90999985    2.66000009
   19.58083344   87.22519684    4.90999985    2.66000009
   19.58416748  100.74299622    4.90999985    2.66000009
   19.58722305   88.43270111    4.90999985    2.66000009
   19.58972359  105.08999634    4.90999985    2.66000009
   19.59111214  103.79399872    4.90999985    2.64000010
   19.59416771  104.11599731    4.90999985    2.66000009
   19.59749985  100.33699799    4.90999985    2.61999989
   19.60083389   93.72049713    4.90999985    2.66000009
   19.60388947   89.71199799    4.90999985    2.64000010
   19.61000061   89.71199799    4.90999985    2.61999989
   19.61416626  100.57199860    4.90999985    2.64000010
   19.61722183   91.65660095    4.90999985    2.64000010
   19.62055588  100.08499908    4.90999985    2.64000010
   19.62305641   89.89060211    4.90999985    2.64000010
   19.62416649   84.30090332    4.90999985    2.64000010
   19.62750053   96.63289642    4.90999985    2.66000009
   19.63055611   97.26119995    4.90999985    2.64000010
   19.63388824   99.10839844    4.90999985    2.61999989
   19.63694382  101.55500031    4.90999985    2.61999989
   19.64027786   98.46890259    4.90999985    2.61999989
   19.64361191  109.16200256    4.90999985    2.61999989
   19.64666748  102.27300262    4.90999985    2.61999989
   19.65277672  102.27300262    4.90999985    2.64000010
   19.65694427   99.50959778    4.90999985    2.61999989
   19.66027832  102.61100006    4.90999985    2.61999989
   19.66333389  104.41999817    4.90999985    2.61999989
   19.66666603   99.18910217    4.90999985    2.64000010
   19.66972160  110.60700226    4.90999985    2.61999989
   19.67305565  110.96399689    4.90999985    2.61999989
   19.67638779   91.31510162    4.90999985    2.61999989
   19.67944336   95.82499695    4.90999985    2.59999990
   19.68277740   84.60569763    4.90999985    2.64000010
   19.68583298  100.89700317    4.90999985    2.59999990
   19.68916512   89.32499695    4.90999985    2.61999989
   19.68972206   92.79759979    4.90999985    2.61999989
   19.69555473   92.79759979    4.90999985    2.64000010
   19.69972038   92.19550323    4.90999985    2.61999989
   19.70305634   98.47740173    4.90999985    2.66000009
   19.70611191   88.07099915    4.90999985    2.64000010
   19.70944595   96.88849640    4.90999985    2.66000009
   19.71277809   92.08489990    4.90999985    2.64000010
   19.71583366   95.72660065    4.90999985    2.64000010
   19.71916771   93.74500275    4.90999985    2.64000010
   19.72222328   98.08170319    4.90999985    2.61999989
   19.72305679   93.70390320    4.90999985    2.61999989
   19.72611237   92.16549683    4.90999985    2.64000010
   19.72916794   93.02140045    4.90999985    2.64000010
   19.73250008   91.34729767    4.90999985    2.61999989
   19.73861122   91.34729767    4.90999985    2.61999989
   19.74250031   85.61380005    4.90999985    2.64000010
   19.74583435   92.14369965    4.90999985    2.66000009
   19.74916649   91.05059814    4.90999985    2.64000010
   19.75222206   95.27200317    4.90999985    2.64000010
   19.75555611   98.33100128    4.90999985    2.64000010
   19.75638962  100.46700287    4.90999985    2.64000010
   19.75916672   94.09809875    4.90999985    2.64000010
   19.76222229   89.74359894    4.90999985    2.64000010
   19.76555634   92.97519684    4.90999985    2.61999989
   19.76888847  105.36299896    4.90999985    2.64000010
   19.77194405  100.36199951    4.90999985    2.64000010
   19.77527809   93.82389832    4.90999985    2.64000010
   19.78138924   93.82389832    4.90999985    2.64000010
   19.78555489  105.05200195    4.90999985    2.64000010
   19.78861046  105.64800262    4.90999985    2.64000010
   19.78972244   88.05960083    4.90999985    2.64000010
   19.79222107  102.87599945    4.90999985    2.64000010
   19.79527664   93.62830353    4.90999985    2.64000010
   19.79861069   92.08360291    4.90999985    2.64000010
   19.80194283   90.72949982    4.90999985    2.64000010
   19.80499840   97.33879852    4.90999985    2.64000010
   19.80833244   99.07559967    4.90999985    2.64000010
   19.81138802   93.43800354    4.90999985    2.64000010
   19.81472206   92.92949677    4.90999985    2.64000010
   19.81805611   92.50949860    4.90999985    2.64000010
   19.82416725   92.50949860    4.90999985    2.64000010
   19.82833481   90.45079803    4.90999985    2.64000010
   19.83166695  101.60099792    4.90999985    2.64000010
   19.83472252   91.39129639    4.90999985    2.64000010
   19.83805656   93.14109802    4.90999985    2.61999989
   19.84111214  104.73600006    4.90999985    2.64000010
   19.84444427  109.59999847    4.90999985    2.64000010
   19.84749985   95.09480286    4.90999985    2.64000010
   19.85083389  103.60399628    4.90999985    2.64000010
   19.85416794   87.78469849    4.90999985    2.64000010
   19.85639000  104.18199921    4.90999985    2.64000010
   19.85777855   99.00540161    4.90999985    2.64000010
   19.86111069   96.92949677    4.90999985    2.64000010
   19.86694527   96.92949677    4.90999985    2.61999989
   19.87111092  101.65699768    4.90999985    2.64000010
   19.87444496   91.22959900    4.90999985    2.61999989
   19.87750053   96.90709686    4.90999985    2.61999989
   19.88083267   95.92369843    4.90999985    2.61999989
   19.88416672   91.68190002    4.90999985    2.61999989
   19.88722229   91.06980133    4.90999985    2.61999989
   19.88972282   98.35250092    4.90999985    2.61999989
   19.89083290  105.76000214    4.90999985    2.61999989
   19.89416695  107.53800201    4.90999985    2.59999990
   19.89722252  100.00599670    4.90999985    2.55999994
   19.90055466  102.58399963    4.90999985    2.55999994
   19.90361023  100.00099945    4.90999985    2.53999996
   19.90999985  100.00099945    4.90999985    2.51999998
   19.91388893  105.99099731    4.90999985    2.50000000
   19.91722107  104.01399994    4.90999985    2.50000000
   19.92055511  100.07299805    4.90999985    2.48000002
   19.92305565  112.23000336    4.90999985    2.46000004
   19.92416573  106.13899994    4.90999985    2.46000004
   19.92749977   98.12480164    4.90999985    2.46000004
   19.93055534  106.82599640    4.90999985    2.44000006
   19.93388748  100.43800354    4.90999985    2.46000004
   19.93694305  100.85800171    4.90999985    2.48000002
   19.94027710   94.24939728    4.90999985    2.48000002
   19.94333267   98.64409637    4.90999985    2.50000000
   19.94666672   90.29949951    4.90999985    2.51999998
   19.95277786   90.29949951    4.90999985    2.50000000
   19.95694542   87.43090057    4.90999985    2.50000000
   19.96000099   91.76069641    4.90999985    2.51999998
   19.96333504   99.66500092    4.90999985    2.53999996
   19.96666718   90.35729980    4.90999985    2.57999992
   19.96972275   91.15940094    4.90999985    2.57999992
   19.97305679   88.24259949    4.90999985    2.61999989
   19.97611237   86.52870178    4.90999985    2.61999989
   19.97944450   85.05359650    4.90999985    2.59999990
   19.98277855   79.74199677    4.90999985    2.59999990
   19.98583412   85.42859650    4.90999985    2.59999990
   19.98916626   99.81900024    4.90999985    2.59999990
   19.98972321  104.14499664    4.90999985    2.59999990
   19.99555588  104.14499664    4.90999985    2.59999990
   19.99972153   -1.00000000    4.90999985    2.59999990
   20.00305557   -1.00000000    4.90999985    2.59999990
   20.00611115   -1.00000000    4.90999985    2.59999990
   20.00944519   -1.00000000    4.90999985    2.59999990
   20.01250076   -1.00000000    4.90999985    2.59999990
   20.01583290   -1.00000000    4.90999985    2.59999990
   20.01888847   -1.00000000    4.90999985    2.59999990
   20.02222252   -1.00000000    4.90999985    2.59999990
   20.02583313   -1.00000000    4.90999985    2.59999990
   20.02888870   -1.00000000    4.90999985    2.59999990
   20.03222275   -1.00000000    4.90999985    2.59999990
   20.05499840   -1.00000000    4.90999985    2.59999990
   20.05888748   -1.00000000    4.90999985    2.59999990
   20.06194305   -1.00000000    4.90999985    2.59999990
   20.06527710   -1.00000000    4.90999985    2.59999990
   20.06833458   -1.00000000    4.90999985    2.59999990
   20.07166672   -1.00000000    4.90999985    2.59999990
   20.07472229   -1.00000000    4.90999985    2.57999992
   20.08527756   -1.00000000    4.90999985    2.59999990
   20.08861160   -1.00000000    4.90999985    2.59999990
   20.09222221   -1.00000000    4.90999985    2.59999990
   20.09527779   -1.00000000    4.90999985    2.59999990
   20.09861183   -1.00000000    4.90999985    2.59999990
   20.10166740   -1.00000000    4.90999985    2.57999992
   20.10499954   -1.00000000    4.90999985    2.57999992
   20.10805511   -1.00000000    4.90999985    2.57999992
   20.11138916   -1.00000000    4.90999985    2.57999992
   20.11444473   -1.00000000    4.90999985    2.57999992
   20.11777878   -1.00000000    4.90999985    2.57999992
   20.12833405   -1.00000000    4.90999985    2.57999992
   20.13138962   -1.00000000    4.90999985    2.57999992
   20.13472176   -1.00000000    4.90999985    2.57999992
   20.13777733   -1.00000000    4.90999985    2.57999992
   20.14111137   -1.00000000    4.90999985    2.57999992
   20.14416695   -1.00000000    4.90999985    2.55999994
   20.14749908   -1.00000000    4.90999985    2.55999994
   20.15055466   -1.00000000    4.90999985    2.53999996
   20.15388870   -1.00000000    4.90999985    2.55999994
   20.15749931   -1.00000000    4.90999985    2.53999996
   20.16055489   -1.00000000    4.90999985    2.51999998
   20.17111015   -1.00000000    4.90999985    2.48000002
   20.17416573   -1.00000000    4.90999985    2.46000004
   20.17749977   -1.00000000    4.90999985    2.48000002
   20.18055534   -1.00000000    4.90999985    2.46000004
   20.18388748   -1.00000000    4.90999985    2.46000004
   20.18722153   -1.00000000    4.90999985    2.46000004
   20.19083214   -1.00000000    4.90999985    2.46000004
   20.19388771   -1.00000000    4.90999985    2.46000004
   20.19722176   -1.00000000    4.90999985    2.46000004
   20.20027924   -1.00000000    4.90999985    2.44000006
   20.20361137   -1.00000000    4.90999985    2.44000006
   20.21389008   -1.00000000    4.90999985    2.36999989
   20.21722221   -1.00000000    4.90999985    2.39000010
   20.22027779   -1.00000000    4.90999985    2.32999992
   20.22389030   -1.00000000    4.90999985    2.32999992
   20.22694588   -1.00000000    4.90999985    2.34999990
   20.23027802   -1.00000000    4.90999985    2.42000008
   20.23333359   -1.00000000    4.90999985    2.46000004
   20.23666763   -1.00000000    4.90999985    2.50000000
   20.23972321   -1.00000000    4.90999985    2.51999998
   20.24305534   -1.00000000    4.90999985    2.53999996
   20.24638939   -1.00000000    4.90999985    2.55999994
   20.25666618   -1.00000000    4.90999985    2.59999990
   20.26000023   -1.00000000    4.90999985    2.59999990
   20.26305580   -1.00000000    4.90999985    2.59999990
   20.26638794   -1.00000000    4.90999985    2.59999990
   20.26944351   -1.00000000    4.90999985    2.59999990
   20.27277756   -1.00000000    4.90999985    2.59999990
   20.27611160   -1.00000000    4.90999985    2.57999992
   20.27916718   -1.00000000    4.90999985    2.53999996
   20.28249931   -1.00000000    4.90999985    2.46000004
   20.28555489   -1.00000000    4.90999985    2.30999994
   20.28888893   -1.00000000    4.90999985    2.39000010
