    HOUR (UT)   FLARE FACTOR    SKY TESTER    SUN TESTER
   17.77611160   -1.00000000   -1.00000000   -1.00000000
   17.80499840  104.91799927    3.00000000    0.01000000
   17.80833244   -1.00000000    3.00000000    0.01000000
   17.81138802   -1.00000000    3.00000000    0.01000000
   17.81472206   -1.00000000    3.00000000    0.01000000
   17.81805611   -1.00000000    3.00000000    0.01000000
   17.82111168   -1.00000000    0.09000000    0.03000000
   17.82944489  135.61799622    0.09000000    0.03000000
   17.83277893  123.81199646    4.90999985    2.67000008
   17.83583450   -1.00000000    0.70999998    2.61999989
   17.83944511   -1.00000000    0.75000000    2.61999989
   17.84277916   93.47969818    0.75000000    2.61999989
   17.84611130   83.84329987    0.76999998    2.61999989
   17.84916687   86.14659882    0.81999999    2.61999989
   17.85250092   81.04280090    0.86000001    2.64000010
   17.85583305   85.90930176    0.89999998    2.64000010
   17.85888863   78.80519867    0.88000000    2.61999989
   17.86222267   82.38639832    0.83999997    2.61999989
   17.86833382   82.38639832    0.79000002    2.64000010
   17.87249947   79.26930237    0.79000002    2.64000010
   17.87555504   79.51770020    0.79000002    2.64000010
   17.87888908   85.82669830    0.80000001    2.61999989
   17.88194466   84.40390015    0.80000001    2.61999989
   17.88527679   84.50019836    0.73000002    2.64000010
   17.88861084   79.42420197    0.75000000    2.61999989
   17.89166641   77.15769958    0.76999998    2.64000010
   17.89500046   84.34999847    0.79000002    2.64000010
   17.89833260   83.48650360    0.79000002    2.61999989
   17.90138817   79.06050110    0.79000002    2.61999989
   17.90472221   80.48269653    0.81999999    2.61999989
   17.90527725   86.64610291    0.81999999    2.61999989
   17.91110992   86.64610291    0.83999997    2.61999989
   17.91527748   84.93199921    0.79000002    2.61999989
   17.91833305   78.92299652    0.75000000    2.61999989
   17.92166519   86.43049622    0.75000000    2.61999989
   17.92499924   86.55519867    0.76999998    2.61999989
   17.92805481   83.52089691    0.76999998    2.61999989
   17.93138885   82.44889832    0.76999998    2.61999989
   17.93444443   80.84100342    0.76999998    2.61999989
   17.93777657   82.83599854    0.76999998    2.61999989
   17.93833160   86.07810211    0.76999998    2.61999989
   17.94166565   80.64730072    0.76999998    2.61999989
   17.94472122   81.52670288    0.76999998    2.61999989
   17.94805527   80.30439758    0.76999998    2.61999989
   17.95388985   80.30439758    0.76999998    2.61999989
   17.95805550   84.61679840    0.76999998    2.61999989
   17.96138954   72.38430023    0.76999998    2.61999989
   17.96444511   86.89920044    0.76999998    2.61999989
   17.96777916   81.46710205    0.76999998    2.61999989
   17.97083473   81.61859894    0.76999998    2.61999989
   17.97166634   79.58869934    0.76999998    2.61999989
   17.97472191   77.83380127    0.76999998    2.61999989
   17.97777748   78.22540283    0.76999998    2.61999989
   17.98111153   80.84760284    0.76999998    2.61999989
   17.98444557   86.39350128    0.76999998    2.61999989
   17.98750114   82.54820251    0.76999998    2.61999989
   17.99083328   84.37539673    0.76999998    2.64000010
   17.99666786   84.37539673    0.92000002    2.59999990
   18.00083351   83.92179871    0.95999998    2.59999990
   18.00416756   77.60050201    0.92000002    2.61999989
   18.00499916   78.21050262    0.92000002    2.59999990
   18.00777817   82.45919800    0.89999998    2.59999990
   18.01083374   80.94170380    0.89999998    2.59999990
   18.01416588   78.33750153    0.92000002    2.59999990
   18.01749992   78.82109833    0.79000002    2.61999989
   18.02055550   77.43730164    0.79000002    2.61999989
   18.02388954   78.46099854    1.46000004    2.66000009
   18.02694511   81.15499878    1.98000002    2.66000009
   18.03027725   79.72309875    4.90999985    2.67000008
   18.03361130   78.86869812    4.90999985    2.67000008
   18.03972244   78.86869812    4.90999985    2.67000008
   18.04361153   80.74559784    4.90999985    2.67000008
   18.04694366   78.47149658    4.90999985    2.67000008
   18.05027771   82.42179871    4.90999985    2.69000006
   18.05333328   79.02870178    4.90999985    2.69000006
   18.05666542   84.89730072    4.90999985    2.71000004
   18.05972099   82.48519897    4.90999985    2.69000006
   18.06305504   88.15429688    4.90999985    2.71000004
   18.06638718   80.17079926    4.90999985    2.71000004
   18.06944466   84.80670166    4.90999985    2.71000004
   18.07166672   84.17030334    4.90999985    2.69000006
   18.07333374   81.99900055    4.90999985    2.71000004
   18.07638931   86.96410370    4.90999985    2.71000004
   18.08250046   86.96410370    4.90999985    2.71000004
   18.08666801   78.29029846    4.90999985    2.71000004
   18.08972359   82.39250183    4.90999985    2.71000004
   18.09305573   79.05930328    4.90999985    2.71000004
   18.09638977   81.35749817    4.90999985    2.71000004
   18.09944534   85.28549957    4.90999985    2.71000004
   18.10277748   83.50959778    4.90999985    2.69000006
   18.10499954   76.73560333    4.90999985    2.71000004
   18.10639000   83.82309723    4.90999985    2.69000006
   18.10972214   88.30770111    4.90999985    2.69000006
   18.11277771   86.95870209    4.90999985    2.71000004
   18.11611176   87.78009796    4.90999985    2.69000006
   18.11916733   86.82749939    4.90999985    2.69000006
   18.12527847   86.82749939    4.90999985    2.71000004
   18.12944412   81.63680267    4.90999985    2.71000004
   18.13277817   88.56459808    4.90999985    2.69000006
   18.13583374   85.54440308    4.90999985    2.69000006
   18.13833237   82.03430176    4.90999985    2.69000006
   18.13944435   82.16649628    4.90999985    2.69000006
   18.14277840   83.23370361    4.90999985    2.69000006
   18.14583397   84.03669739    4.90999985    2.69000006
   18.14916611   81.62670135    4.90999985    2.69000006
   18.15222168   80.73380280    4.90999985    2.71000004
   18.15555573   80.78359985    4.90999985    2.71000004
   18.15888786   82.83910370    4.90999985    2.71000004
   18.16194344   83.50949860    4.90999985    2.69000006
   18.16805458   83.50949860    4.90999985    2.71000004
   18.17222214   83.00099945    4.90999985    2.71000004
   18.17555428   82.02929688    4.90999985    2.71000004
   18.17860985   81.27970123    4.90999985    2.69000006
   18.18194389   86.57990265    4.90999985    2.69000006
   18.18527603   84.86419678    4.90999985    2.71000004
   18.18833160   87.82230377    4.90999985    2.69000006
   18.19166565   87.84690094    4.90999985    2.71000004
   18.19499969   86.06970215    4.90999985    2.69000006
   18.19805527   90.76789856    4.90999985    2.71000004
   18.20138931  110.72200012    4.90999985    2.71000004
   18.20444489   92.41780090    4.90999985    2.71000004
   18.20499992  129.19299316    4.90999985    2.71000004
   18.21111107  129.19299316    4.90999985    2.71000004
   18.21500015  101.48400116    4.90999985    2.66000009
   18.21833420  121.52400208    4.90999985    2.64000010
   18.22166634  113.98100281    4.90999985    2.66000009
   18.22472191  115.28099823    4.90999985    2.66000009
   18.22805595  117.52400208    4.90999985    2.66000009
   18.23139000   97.06580353    4.90999985    2.66000009
   18.23444557  103.57199860    4.90999985    2.66000009
   18.23777771   99.63939667    4.90999985    2.66000009
   18.23833275   87.30840302    4.90999985    2.66000009
   18.24138832   98.72760010    4.90999985    2.66000009
   18.24472237   86.97850037    4.90999985    2.66000009
   18.24777794   87.79049683    4.90999985    2.66000009
   18.25388908   87.79049683    4.90999985    2.66000009
   18.25805473   88.50140381    4.90999985    2.66000009
   18.26305580   87.04129791    4.90999985    2.66000009
   18.26361084   81.36759949    4.90999985    2.66000009
   18.26472282   89.13520050    4.90999985    2.66000009
   18.27000046   91.39689636    4.90999985    2.66000009
   18.27166557   84.95030212    4.90999985    2.66000009
   18.27361107   91.73439789    4.90999985    2.66000009
   18.27694511   90.73999786    4.90999985    2.66000009
   18.28000069   85.49389648    4.90999985    2.66000009
   18.28333282   82.87139893    4.90999985    2.66000009
   18.28750038   82.87139893    4.90999985    2.66000009
   18.29166603   85.00229645    4.90999985    2.64000010
   18.29472160   85.85189819    2.98000002    2.66000009
   18.29805565   81.29570007    2.94000006    2.66000009
   18.30138779   89.32479858    4.90999985    2.66000009
   18.30444336   88.21080017    4.90999985    2.66000009
   18.30499840   90.25050354    4.90999985    2.66000009
   18.30805397   86.44049835    1.64999998    2.64000010
   18.31138802   80.63760376    3.30999994    2.59999990
   18.31444359   88.26860046    3.41000009    2.59999990
   18.31777954   96.37870026    3.46000004    2.59999990
   18.32111168   96.23619843    3.48000002    2.61999989
   18.32416725   84.88870239    2.15000010    2.59999990
   18.33027840   84.88870239    2.17000008    2.59999990
   18.33444595   87.25800323    2.19000006    2.59999990
   18.33777809   91.85050201    2.05999994    2.61999989
   18.33833313   84.82759857    2.05999994    2.61999989
   18.34138870   93.83599854    2.03999996    2.59999990
   18.34472275   89.57980347    2.05999994    2.59999990
   18.34777832   92.76429749    2.03999996    2.59999990
   18.35111237   83.58059692    1.98000002    2.59999990
   18.35444450   89.93070221    2.00000000    2.59999990
   18.35750008   87.62349701    2.03999996    2.59999990
   18.36083412   87.45809937    2.00000000    2.59999990
   18.36388969   85.23780060    2.00000000    2.59999990
   18.36722183   85.85310364    2.01999998    2.59999990
   18.37305641   85.85310364    1.94000006    2.61999989
   18.37722206   89.06819916    1.91999996    2.61999989
   18.38055611   88.68499756    1.91999996    2.59999990
   18.38388824   85.47039795    1.89999998    2.59999990
   18.38694382   86.66280365    1.88000000    2.61999989
   18.39027786   82.34169769    1.89999998    2.59999990
   18.39333344   82.80519867    1.89999998    2.59999990
   18.39666748   85.74349976    1.91999996    2.59999990
   18.39999962   85.67890167    1.89999998    2.59999990
   18.40305519   86.31179810    1.89999998    2.59999990
   18.40499878   87.56880188    1.91999996    2.61999989
   18.40666580   82.72419739    1.94000006    2.59999990
   18.40999985   81.92070007    1.94000006    2.61999989
   18.41611099   81.92070007    1.94000006    2.57999992
   18.42027664   97.87750244    1.96000004    2.59999990
   18.42333221   95.96990204    1.96000004    2.59999990
   18.42666626   87.79270172    1.94000006    2.59999990
   18.42972183   86.66899872    1.94000006    2.59999990
   18.43305397   83.96289825    1.91999996    2.61999989
   18.43638802   95.73249817    1.94000006    2.59999990
   18.43833160   92.80030060    1.94000006    2.59999990
   18.43999863   93.96340179    1.96000004    2.59999990
   18.44333267   87.95559692    1.91999996    2.59999990
   18.44666672   90.86990356    1.94000006    2.59999990
   18.44972038   89.41819763    1.91999996    2.59999990
   18.45305634   90.11150360    1.91999996    2.59999990
   18.45888901   90.11150360    1.94000006    2.59999990
   18.46305656   91.24050140    1.91999996    2.59999990
   18.46611214   88.43139648    1.91999996    2.59999990
   18.46944427   94.42970276    1.86000001    2.61999989
   18.47194481   90.78530121    1.86000001    2.59999990
   18.47305679   93.23059845    1.88000000    2.59999990
   18.47638893   91.47869873    1.88000000    2.59999990
   18.47944450   98.42649841    1.91999996    2.59999990
   18.48277855   92.15750122    1.94000006    2.59999990
   18.48611069   90.04930115    1.98000002    2.59999990
   18.48916626   89.44850159    2.01999998    2.59999990
   18.49250031   91.38870239    2.03999996    2.59999990
   18.49583435   90.06340027    2.05999994    2.59999990
   18.50166702   90.06340027    1.98000002    2.59999990
   18.50583267   90.60459900    1.94000006    2.59999990
   18.50916672   92.56729889    1.91999996    2.59999990
   18.51222229   94.85769653    1.94000006    2.59999990
   18.51555634   97.93389893    1.91999996    2.59999990
   18.51888847   97.31009674    1.86000001    2.59999990
   18.52194405   98.86209869    1.88000000    2.59999990
   18.52527809  102.52700043    1.88000000    2.59999990
   18.52833366  100.73400116    1.89999998    2.59999990
   18.53166580  101.41000366    1.89999998    2.59999990
   18.53499985   94.80059814    1.94000006    2.59999990
   18.53805542  101.23100281    1.94000006    2.59999990
   18.53861046   95.16909790    1.91999996    2.59999990
   18.54444313   95.16909790    1.94000006    2.59999990
   18.54861069   98.73200226    1.98000002    2.59999990
   18.55194283   97.10919952    1.91999996    2.59999990
   18.55499840   94.52279663    1.94000006    2.59999990
   18.55833244   98.27790070    2.00000000    2.59999990
   18.56166649  100.83100128    2.00000000    2.59999990
   18.56472206   99.57199860    1.96000004    2.59999990
   18.56805611   95.00109863    1.98000002    2.57999992
   18.57139015   88.30100250    2.03999996    2.57999992
   18.57194519   89.47699738    1.98000002    2.59999990
   18.57500076   95.79620361    1.98000002    2.59999990
   18.57805634   97.24379730    2.07999992    2.59999990
   18.58139038   93.99539948    2.00000000    2.59999990
   18.58750153   93.99539948    2.01999998    2.59999990
   18.59166718   87.78880310    2.07999992    2.59999990
   18.59472275  101.54499817    2.05999994    2.59999990
   18.59805679   91.14060211    2.01999998    2.59999990
   18.60138893   92.82440186    1.98000002    2.59999990
   18.60444450   90.71219635    1.98000002    2.59999990
   18.60527802   97.41889954    2.00000000    2.59999990
   18.60805511   94.87439728    1.96000004    2.59999990
   18.61111069   92.96649933    1.89999998    2.59999990
   18.61444473   89.94730377    1.88000000    2.59999990
   18.61777878   87.25789642    1.88000000    2.57999992
   18.62083435   95.06960297    1.91999996    2.59999990
   18.62416649   94.79540253    1.91999996    2.59999990
   18.63027763   94.79540253    1.98000002    2.59999990
   18.63444519   93.08920288    1.98000002    2.59999990
   18.63750076   94.36260223    1.96000004    2.59999990
   18.63861084   89.56490326    1.98000002    2.57999992
   18.64138794   87.61530304    1.96000004    2.59999990
   18.64444351   94.15720367    1.96000004    2.57999992
   18.64777756   84.20420074    1.98000002    2.59999990
   18.65111160   87.69129944    1.98000002    2.59999990
   18.65416718   89.14569855    2.01999998    2.57999992
   18.65749931   92.83039856    2.03999996    2.59999990
   18.66083336   87.87349701    2.03999996    2.59999990
   18.66388893   90.35230255    2.07999992    2.57999992
   18.66722107   89.21640015    2.05999994    2.57999992
   18.67305565   89.21640015    2.07999992    2.57999992
   18.67722130   89.38159943    2.01999998    2.57999992
   18.68055534   85.30660248    1.98000002    2.57999992
   18.68361092   93.55670166    2.01999998    2.57999992
   18.68694305   89.90889740    1.98000002    2.57999992
   18.68999863   85.91950226    2.00000000    2.57999992
   18.69333267   88.33249664    1.98000002    2.59999990
   18.69666672   89.70149994    2.00000000    2.59999990
   18.69972038   94.80580139    1.98000002    2.57999992
   18.70305634   89.66629791    1.98000002    2.57999992
   18.70527840   87.41400146    1.96000004    2.57999992
   18.70666695   86.98680115    1.96000004    2.59999990
   18.71000099   86.50990295    1.96000004    2.57999992
   18.71583366   86.50990295    1.96000004    2.59999990
   18.72000122   85.84860229    1.98000002    2.57999992
   18.72333336   81.35179901    1.98000002    2.57999992
   18.72638893   82.09549713    1.98000002    2.57999992
   18.72972298   85.31990051    1.98000002    2.55999994
   18.73305511   91.66680145    1.98000002    2.57999992
   18.73611069   89.54679871    2.00000000    2.57999992
   18.73861122   89.54869843    2.01999998    2.55999994
   18.73999977   83.71949768    2.01999998    2.57999992
   18.74333382   92.87960052    2.05999994    2.57999992
   18.74638939   89.56729889    2.05999994    2.57999992
   18.74972153   87.49440002    2.01999998    2.57999992
   18.75277710   90.98370361    2.03999996    2.57999992
   18.75888824   90.98370361    2.11999989    2.57999992
   18.76277733   90.08119965    2.15000010    2.55999994
   18.76611137   90.32520294    2.17000008    2.55999994
   18.76944351   94.05259705    2.23000002    2.57999992
   18.77194405   92.51540375    2.23000002    2.55999994
   18.77305603   97.48049927    2.23000002    2.55999994
   18.77638817   91.00170135    2.23000002    2.55999994
   18.77944374   91.50199890    2.23000002    2.57999992
   18.78277779   89.55879974    2.26999998    2.57999992
   18.78583336   93.46510315    2.28999996    2.55999994
   18.78916550   92.62550354    2.30999994    2.55999994
   18.79249954   90.08789825    2.34999990    2.55999994
   18.79555511   96.04170227    2.39000010    2.55999994
   18.80166626   96.04170227    2.30999994    2.55999994
   18.80583191   91.11419678    2.30999994    2.55999994
   18.80888748   92.61930084    2.30999994    2.55999994
   18.81222153   93.76679993    2.30999994    2.55999994
   18.81555557   81.57569885    2.32999992    2.57999992
   18.81861115   81.42050171    2.34999990    2.57999992
   18.82194519   82.76080322    2.32999992    2.57999992
   18.82500076   88.71009827    2.34999990    2.55999994
   18.82833481   82.64959717    2.39000010    2.57999992
   18.83166695   84.94059753    2.39000010    2.55999994
   18.83472252   83.18479919    2.40000010    2.55999994
   18.83805656   88.93499756    2.39000010    2.57999992
   18.83861160   82.43599701    2.36999989    2.55999994
   18.84444427   82.43599701    2.28999996    2.57999992
   18.84861183   87.18430328    2.28999996    2.57999992
   18.85194397   87.23909760    2.30999994    2.57999992
   18.85499954   87.15390015    2.28999996    2.55999994
   18.85833359   88.82180023    2.36999989    2.55999994
   18.86138916   80.33380127    2.34999990    2.55999994
   18.86472321   84.94010162    2.34999990    2.55999994
   18.86805534   91.95099640    2.32999992    2.55999994
   18.87111092   82.63659668    2.28999996    2.55999994
   18.87194443   85.33159637    2.30999994    2.57999992
   18.87472153   86.54799652    2.32999992    2.55999994
   18.87805557   91.88510132    2.44000006    2.55999994
   18.88111115   82.39230347    2.80999994    2.55999994
   18.88722229   82.39230347    2.48000002    2.57999992
   18.89138794   89.17759705    2.36999989    2.57999992
   18.89472198   88.19670105    2.30999994    2.55999994
   18.89777756   89.20709991    2.28999996    2.55999994
   18.90111160   87.56749725    2.26999998    2.55999994
   18.90444374   85.38860321    2.28999996    2.55999994
   18.90527725   82.53520203    2.28999996    2.55999994
   18.90805435   85.51399994    2.30999994    2.55999994
   18.91138840   84.45580292    2.25000000    2.55999994
   18.91444397   91.60729980    2.25000000    2.55999994
   18.91777802   91.24720001    2.26999998    2.55999994
   18.92111015   87.23639679    2.28999996    2.57999992
   18.92416573   85.08399963    2.28999996    2.55999994
   18.93027687   85.08399963    2.26999998    2.57999992
   18.93416595   95.68679810    2.28999996    2.55999994
   18.93750000   85.48169708    2.28999996    2.55999994
   18.93861008   88.84470367    2.28999996    2.55999994
   18.94111061   90.72579956    2.28999996    2.55999994
   18.94444275   91.66480255    2.34999990    2.55999994
   18.94749832   90.57749939    2.28999996    2.55999994
   18.95083427   93.35430145    2.26999998    2.55999994
   18.95416832   91.79450226    2.28999996    2.55999994
   18.95722389   94.67559814    2.28999996    2.55999994
   18.96055603   83.96510315    2.34999990    2.57999992
   18.96361160   92.17669678    2.36999989    2.57999992
   18.96694565   92.15989685    2.40000010    2.55999994
   18.97305679   92.15989685    2.51999998    2.55999994
   18.97722244   91.91040039    2.64000010    2.55999994
   18.98027802   91.84510040    2.69000006    2.55999994
   18.98361206   90.03479767    2.69000006    2.55999994
   18.98694420   83.56719971    2.76999998    2.55999994
   18.98999977   92.45670319    2.67000008    2.55999994
   18.99333382   95.09980011    2.69000006    2.55999994
   18.99638939   84.20269775    2.61999989    2.55999994
   18.99972153   92.09200287    2.64000010    2.55999994
   19.00305557   89.38919830    2.61999989    2.55999994
   19.00527763   89.46040344    2.64000010    2.55999994
   19.00666618   88.79299927    2.61999989    2.55999994
   19.01000023   90.55750275    2.66000009    2.55999994
   19.01583290   90.55750275    2.59999990    2.55999994
   19.02000046   89.90740204    2.64000010    2.53999996
   19.02333260   93.88690186    2.57999992    2.55999994
   19.02638817   87.11569977    2.57999992    2.55999994
   19.02972221   84.23000336    2.51999998    2.55999994
   19.03277779   85.71230316    2.46000004    2.55999994
   19.03610992   86.25650024    2.42000008    2.55999994
   19.03861046   87.38159943    2.42000008    2.55999994
   19.03972244   95.88500214    2.40000010    2.55999994
   19.04305458   90.20880127    2.36999989    2.55999994
   19.04611015   97.25319672    2.36999989    2.55999994
   19.04944420   91.49919891    2.39000010    2.55999994
   19.05277634   93.65460205    2.40000010    2.55999994
   19.05861092   93.65460205    2.40000010    2.55999994
   19.06277657   88.80740356    2.39000010    2.55999994
   19.06611061   89.09999847    2.39000010    2.55999994
   19.06916809   89.20549774    2.36999989    2.55999994
   19.07194519   85.79119873    2.34999990    2.55999994
   19.07305717   85.86080170    2.34999990    2.55999994
   19.07638931   82.17089844    2.40000010    2.55999994
   19.07944489   86.06529999    2.46000004    2.53999996
   19.08277893   92.19259644    2.57999992    2.53999996
   19.08611107   86.93879700    2.67000008    2.55999994
   19.08916664   90.03720093    2.71000004    2.55999994
   19.09250069   90.75430298    2.76999998    2.53999996
   19.09555626   91.56150055    2.78999996    2.53999996
   19.10166740   91.56150055    2.91000009    2.53999996
   19.10555649   89.39009857    3.09999990    2.53999996
   19.10888863   85.04309845    3.01999998    2.53999996
   19.11222267   86.90599823    3.05999994    2.51999998
   19.11527824   84.22170258    3.03999996    2.53999996
   19.11861038   83.31690216    2.91000009    2.53999996
   19.12166595   89.97299957    2.86999989    2.53999996
   19.12500000   85.69950104    2.84999990    2.53999996
   19.12833405   84.71970367    2.82999992    2.53999996
   19.13138962   93.67720032    2.75000000    2.53999996
   19.13472176   88.18129730    2.69000006    2.53999996
   19.13805580   94.08080292    2.73000002    2.53999996
   19.13861084   97.78510284    2.73000002    2.53999996
   19.14444351   97.78510284    2.69000006    2.53999996
   19.14861107   91.95240021    2.61999989    2.53999996
   19.15166664   84.03079987    2.51999998    2.53999996
   19.15499878   84.32610321    2.50000000    2.53999996
   19.15833282   86.32289886    2.51999998    2.53999996
   19.16138840   95.04519653    2.51999998    2.53999996
   19.16472244   87.30950165    2.55999994    2.53999996
   19.16777802   93.81479645    2.55999994    2.53999996
   19.17111015   95.64859772    2.55999994    2.53999996
   19.17194366   94.86409760    2.55999994    2.53999996
   19.17472076   91.29650116    2.53999996    2.53999996
   19.17805481   88.23850250    2.55999994    2.53999996
   19.18111038   93.90470123    2.59999990    2.53999996
   19.18722153   93.90470123    2.53999996    2.53999996
   19.19138718   88.67590332    2.55999994    2.53999996
   19.19444275   91.22100067    2.59999990    2.53999996
   19.19777679   86.76309967    2.69000006    2.53999996
   19.20111275   85.76270294    2.61999989    2.53999996
   19.20444489   90.19149780    2.61999989    2.53999996
   19.20527840   89.49459839    2.59999990    2.53999996
   19.20805550   92.66750336    2.57999992    2.53999996
   19.21138954   88.65470123    2.57999992    2.53999996
   19.21444511   86.11129761    2.59999990    2.53999996
   19.21777916   90.47609711    2.48000002    2.53999996
   19.22111130   87.97000122    2.59999990    2.53999996
   19.22416687   92.83719635    2.61999989    2.53999996
   19.23000145   92.83719635    2.53999996    2.53999996
   19.23416710   89.22730255    4.17999983    2.53999996
   19.23750114   84.61090088    4.90999985    2.55999994
   19.23861122   83.64810181    4.90999985    2.55999994
   19.24111176   85.54080200    4.90999985    2.55999994
   19.24444389   87.67610168    4.90999985    2.55999994
   19.24749947   80.15570068    4.90999985    2.55999994
   19.25083351   83.00920105    4.90999985    2.55999994
   19.25416756   82.79989624    4.90999985    2.55999994
   19.25722313   89.67710114    4.90999985    2.55999994
   19.26055527   91.09739685    4.90999985    2.55999994
   19.26388931   86.99900055    4.90999985    2.55999994
   19.26694489   83.83020020    4.90999985    2.55999994
   19.28805542   83.83020020    4.90999985    2.53999996
   19.29222107   84.89900208    4.90999985    2.53999996
   19.29527664   83.10379791    4.90999985    2.55999994
   19.29861069   86.69909668    4.90999985    2.53999996
   19.30166626   87.35530090    4.90999985    2.55999994
   19.30499840   90.84110260    4.90999985    2.53999996
   19.30833244   89.05950165    4.90999985    2.55999994
   19.31138802   83.45719910    4.90999985    2.55999994
   19.31472206   81.74590302    4.90999985    2.55999994
   19.31805611   92.71890259    4.90999985    2.55999994
   19.31888962   86.15789795    4.90999985    2.55999994
   19.32139015   90.87120056    4.90999985    2.55999994
   19.32472229   85.57089996    4.90999985    2.55999994
   19.33083344   85.57089996    4.90999985    2.55999994
   19.33472252   84.73829651    4.90999985    2.55999994
   19.33805656   88.30519867    4.90999985    2.55999994
   19.34138870   86.86979675    4.90999985    2.55999994
   19.34444427   92.52709961    4.90999985    2.53999996
   19.34777832   85.18499756    4.90999985    2.55999994
   19.35111237   88.18260193    4.90999985    2.55999994
   19.35222244   89.36990356    4.90999985    2.53999996
   19.35444450   93.85169983    4.90999985    2.53999996
   19.35777855   85.19640350    4.90999985    2.53999996
   19.36111069   88.05480194    4.90999985    2.53999996
   19.36416626   94.07599640    4.90999985    2.53999996
   19.36750031   88.51640320    4.90999985    2.53999996
   19.37361145   88.51640320    4.90999985    2.53999996
   19.37777710   92.12110138    4.90999985    2.53999996
   19.38083267   91.01840210    4.90999985    2.55999994
   19.38416672   90.26519775    4.90999985    2.55999994
   19.38555527   86.33159637    4.90999985    2.55999994
   19.38777733   90.92559814    4.90999985    2.55999994
   19.39111137   85.14469910    4.90999985    2.55999994
   19.39416695   88.70619965    4.90999985    2.55999994
   19.39749908   88.25599670    4.90999985    2.53999996
   19.40055466   83.51450348    4.90999985    2.53999996
   19.40388870   86.78829956    4.90999985    2.55999994
   19.40722275   86.59130096    4.90999985    2.53999996
   19.41027832   85.17870331    4.90999985    2.53999996
   19.41638756   85.17870331    4.90999985    2.51999998
   19.42055511   82.55190277    4.90999985    2.53999996
   19.42388916   91.46929932    4.90999985    2.53999996
   19.42694473   86.28669739    4.90999985    2.53999996
   19.43027687   80.97599792    4.90999985    2.53999996
   19.43333244   84.26260376    4.90999985    2.51999998
   19.43666649   91.03170013    4.90999985    2.59999990
   19.43999863   85.03839874    4.90999985    2.59999990
   19.44305420   92.94360352    0.56999999    2.67000008
   19.44638824   88.61070251    0.44000000    2.59999990
   19.44972038   84.49130249    0.31999999    1.13000000
   19.45222282   92.59619904    0.31999999    0.94000000
   19.45333481   92.80989838    0.30000001    0.94000000
   19.45916748   92.80989838    0.23000000    0.76999998
   19.46333504   89.94799805    0.25000000    0.76999998
   19.46666718   86.92680359    0.25000000    0.76999998
   19.46972275   86.49690247    0.25000000    0.76999998
   19.47305679   91.14070129    0.25000000    0.76999998
   19.47638893   88.29669952    0.25000000    0.76999998
   19.47944450   90.19080353    0.25000000    0.76999998
   19.48277855   86.61940002    0.25000000    0.76999998
   19.48555565   82.93000031    0.25000000    0.76999998
   19.48638916   86.28510284    0.25000000    0.76999998
   19.48972321   84.12409973    0.25000000    0.76999998
   19.49277878   87.13510132    0.25999999    0.76999998
   19.49611092   86.47329712    0.30000001    0.76999998
   19.50222206   86.47329712    0.28000000    0.76999998
   19.50611115   89.13780212    0.25999999    0.76999998
   19.50944519   89.43460083    0.25999999    0.76999998
   19.51277733   88.52899933    0.25000000    0.76999998
   19.51583290   95.08350372    0.25000000    0.76999998
   19.51888847   87.41560364    0.25000000    0.76999998
   19.51944351   89.74900055    0.25000000    0.76999998
   19.52277756   85.16300201    0.25999999    0.76999998
   19.52583313   97.61519623    0.25000000    0.76999998
   19.52916718   96.74710083    0.25000000    0.76999998
   19.53249931   96.86930084    0.25000000    0.76999998
   19.53555489   92.53050232    0.25000000    0.75000000
   19.53888893   99.87619781    0.23000000    0.70999998
   19.54500008   99.87619781    0.23000000    0.69000000
   19.54916573   91.64679718    0.23000000    0.69000000
   19.55222130   98.19719696    0.41999999    1.91999996
   19.55277634   90.43509674    0.58999997    2.64000010
   19.55611038   93.22329712    1.41999996    2.50000000
   19.55916595  100.81099701    1.36000001    2.48000002
   19.56250000   90.86239624    1.36000001    2.50000000
   19.56583214   98.10040283    1.34000003    2.48000002
   19.56888962   93.58799744    1.36000001    2.48000002
   19.57222366   90.83270264    1.39999998    2.48000002
   19.57527924   92.17369843    1.41999996    2.50000000
   19.57861137   94.47129822    1.44000006    2.50000000
   19.58194542   91.59210205    1.46000004    2.50000000
   19.58777809   91.59210205    1.36000001    2.50000000
   19.59194565   91.40889740    3.68000007    2.51999998
   19.59527779   92.39199829    4.90999985    2.59999990
   19.59833336   89.00090027    4.67999983    2.51999998
   19.60166740   88.71579742    4.90999985    2.55999994
   19.60472298   86.90809631    4.90999985    2.57999992
   19.60805511   89.47689819    4.90999985    2.55999994
   19.61138916   90.35870361    4.90999985    2.55999994
   19.61444473   84.51409912    1.28999996    2.48000002
   19.61777878   89.28769684    1.33000004    2.50000000
   19.61916733   92.73750305    1.33000004    2.50000000
   19.62138939   92.27380371    1.30999994    2.48000002
   19.62472153   83.91739655    1.33000004    2.50000000
   19.63055611   83.91739655    1.51999998    2.48000002
   19.63472176   90.65920258    1.63000000    2.48000002
   19.63805580   92.72080231    4.90999985    2.51999998
   19.64111137   90.70570374    1.86000001    2.50000000
   19.64444351   89.42800140    1.80999994    2.48000002
   19.64777756  100.43900299    1.94000006    2.48000002
   19.65083313  103.05599976    1.83000004    2.48000002
   19.65250015   87.44120026    1.83000004    2.48000002
   19.65444374  105.35500336    1.76999998    2.48000002
   19.65777779   91.80470276    1.80999994    2.48000002
   19.66083336  100.21600342    1.83000004    2.48000002
   19.66416550   97.38020325    2.05999994    2.48000002
   19.66749954   95.65940094    3.36999989    2.48000002
   19.67361069   95.65940094    2.30999994    2.48000002
   19.67749977   89.66429901    2.21000004    2.46000004
   19.68083191   92.18930054    2.39000010    2.48000002
   19.68416595   89.52829742    2.55999994    2.48000002
   19.68583298   88.31210327    2.55999994    2.48000002
   19.68777657   99.17310333    2.51999998    2.48000002
   19.69111061   85.46510315    4.13999987    2.48000002
   19.69416618   88.81999969    4.63999987    2.48000002
   19.69749832   93.72709656    3.39000010    2.48000002
   19.70055580   81.76570129    3.07999992    2.46000004
   19.70388985   96.05229950    3.25000000    2.46000004
   19.70722389   91.02239990    3.21000004    2.46000004
   19.71027946   99.64910126    2.71000004    2.48000002
   19.71638870   99.64910126    2.86999989    2.48000002
   19.72055626   89.67050171    4.90999985    2.48000002
   19.72361183   87.56050110    2.76999998    2.46000004
   19.72694588   89.29940033    2.76999998    2.46000004
   19.73027802   99.13960266    4.90999985    2.46000004
   19.73333359   91.24810028    4.90999985    2.48000002
   19.73666763   95.49490356    4.90999985    2.48000002
   19.73972321   94.05580139    4.90999985    2.46000004
   19.74305534   92.42900085    4.90999985    2.46000004
   19.74638939   92.76249695    4.90999985    2.48000002
   19.74944496   97.30940247    4.90999985    2.48000002
   19.75250053   97.74030304    4.90999985    2.48000002
   19.75333405   91.77629852    4.90999985    2.48000002
   19.75916672   91.77629852    4.90999985    2.46000004
   19.76333427   92.72699738    4.90999985    2.48000002
   19.76666641   97.80629730    4.90999985    2.46000004
   19.76972198   90.63159943    4.90999985    2.46000004
   19.77305603   91.74690247    4.90999985    2.46000004
   19.77611160  107.81999969    4.90999985    2.46000004
   19.77944374   85.77719879    4.90999985    2.46000004
   19.78277779   88.29309845    4.90999985    2.46000004
   19.78583336   90.70490265    4.90999985    2.46000004
   19.78638840   95.11229706    4.90999985    2.46000004
   19.78944397   88.86250305    4.90999985    2.46000004
   19.79277802   86.84410095    4.90999985    2.46000004
   19.79611015   88.08940125    4.90999985    2.46000004
   19.80194283   88.08940125    4.90999985    2.44000006
   19.80611038   94.47290039    4.90999985    2.44000006
   19.80944443   90.99340057    4.90999985    2.44000006
   19.81250000   91.66649628    4.90999985    2.44000006
   19.81583214   90.63809967    4.90999985    2.44000006
   19.81916809   91.95210266    4.90999985    2.44000006
   19.81972313   87.06169891    4.90999985    2.44000006
   19.82277870   88.56069946    4.90999985    2.44000006
   19.82611275  100.43699646    4.90999985    2.44000006
   19.82944489   95.33509827    4.90999985    2.44000006
   19.83250046   94.53659821    4.90999985    2.44000006
   19.83583450   91.20860291    4.90999985    2.44000006
   19.83889008   93.52059937    4.90999985    2.44000006
   19.84500122   93.52059937    4.90999985    2.44000006
   19.84889030   84.07800293    4.90999985    2.44000006
   19.85222244   88.10839844    4.90999985    2.44000006
   19.85305595   92.24539948    4.90999985    2.44000006
   19.85583305   93.76840210    4.90999985    2.44000006
   19.85916710   90.49600220    4.90999985    2.44000006
   19.86250114   86.74050140    4.90999985    2.44000006
   19.86555672   89.40989685    4.90999985    2.44000006
   19.86888885   94.42510223    4.90999985    2.44000006
   19.87194443   88.29750061    4.90999985    2.42000008
   19.87527847   94.82779694    4.90999985    2.44000006
   19.87861061   83.25430298    4.90999985    2.42000008
   19.88166618  100.07499695    4.90999985    2.42000008
   19.88777733  100.07499695    4.90999985    2.42000008
   19.89194489   92.07559967    4.90999985    2.42000008
   19.89500046   89.62139893    4.90999985    2.40000010
   19.89833260   87.32559967    4.90999985    2.40000010
   19.90138817   88.11550140    4.90999985    2.40000010
   19.90472221   83.32170105    4.90999985    2.42000008
   19.90805435   92.80220032    4.90999985    2.42000008
   19.91110992   91.43440247    4.90999985    2.42000008
   19.91444397   88.65070343    4.90999985    2.40000010
   19.91777802   96.61460114    4.90999985    2.42000008
   19.91972160   95.02639771    4.90999985    2.42000008
   19.92111015   93.27359772    4.90999985    2.42000008
   19.92444420   96.75160217    4.90999985    2.42000008
   19.93055534   96.75160217    4.90999985    2.42000008
   19.93472099   95.21060181    4.90999985    2.42000008
   19.93805504   91.71510315    4.90999985    2.44000006
   19.94111061   87.71920013    4.90999985    2.42000008
   19.94444275   88.00099945    4.90999985    2.42000008
   19.94749832   87.75640106    4.90999985    2.42000008
   19.95083427   85.25759888    4.90999985    2.42000008
   19.95305634   97.77010345    4.90999985    2.42000008
   19.95444489   86.89350128    4.90999985    2.42000008
   19.95777893   85.25009918    4.90999985    2.42000008
   19.96111107   82.37079620    4.90999985    2.42000008
   19.96416664   88.74929810    4.90999985    2.42000008
   19.96750069   86.92250061    4.90999985    2.42000008
   19.97333336   86.92250061    4.90999985    2.42000008
   19.97750092   87.12850189    4.90999985    2.42000008
   19.98083305   94.66799927    4.90999985    2.42000008
   19.98388863   83.83159637    4.90999985    2.40000010
   19.98638916   97.73519897    4.90999985    2.40000010
   19.98750114   87.34719849    4.90999985    2.40000010
   19.99083328   94.57039642    4.90999985    2.40000010
   19.99416733   92.52649689    4.90999985    2.40000010
   19.99722290   90.57620239    4.90999985    2.42000008
   20.00055504   82.48519897    4.90999985    2.42000008
   20.00361061   88.74629974    4.90999985    2.40000010
   20.00694466   88.63059998    4.90999985    2.40000010
   20.01027870   98.86789703    4.90999985    2.42000008
   20.01611137   98.86789703    4.90999985    2.40000010
   20.02027702   90.93930054    4.90999985    2.40000010
   20.02361107   93.54859924    4.90999985    2.40000010
   20.02694511   93.08689880    4.90999985    2.40000010
   20.03000069   90.74710083    4.90999985    2.40000010
   20.03333282   90.46040344    4.90999985    2.42000008
   20.03638840   89.88300323    4.90999985    2.40000010
   20.03972244   91.24579620    4.90999985    2.40000010
   20.04305458   85.33170319    4.90999985    2.40000010
   20.04611015   96.09200287    4.90999985    2.40000010
   20.04944420   90.25610352    4.90999985    2.40000010
   20.05277634   95.74710083    4.90999985    2.40000010
   20.05305481   98.01799774    4.90999985    2.40000010
   20.05916595   98.01799774    4.90999985    2.40000010
   20.06333351  101.45600128    4.90999985    2.40000010
   20.06638718   96.64060211    4.90999985    2.40000010
   20.06972313   95.96399689    4.90999985    2.40000010
   20.07305717  101.50099945    4.90999985    2.40000010
   20.07611275   94.62380219    4.90999985    2.39000010
   20.07777786   88.56089783    4.90999985    2.40000010
   20.07833481  101.28800201    4.90999985    2.40000010
   20.07888985   94.20860291    4.90999985    2.40000010
   20.07944489  103.93900299    4.90999985    2.39000010
   20.08000183   96.00920105    4.90999985    2.39000010
   20.08055687   94.33219910    4.90999985    2.39000010
   20.08111191   90.88359833    4.90999985    2.39000010
   20.08166695   93.36190033    4.90999985    2.39000010
   20.08222389   87.86139679    4.90999985    2.39000010
   20.08277893   88.63590240    4.90999985    2.39000010
   20.08333397   88.50599670    4.90999985    2.40000010
   20.08388901   92.82859802    4.90999985    2.40000010
   20.08444595   84.99330139    4.90999985    2.40000010
   20.08500099   88.78150177    4.90999985    2.40000010
   20.08555603   88.91880035    4.90999985    2.39000010
   20.08611107   92.37920380    4.90999985    2.39000010
   20.08666801   94.86080170    4.90999985    2.39000010
   20.08722305   91.16269684    4.90999985    2.39000010
   20.08777809   91.84329987    4.90999985    2.39000010
   20.08833313   89.31890106    4.90999985    2.39000010
   20.08889008   95.37989807    4.90999985    2.39000010
   20.08944511   91.17030334    4.90999985    2.39000010
   20.09000015   95.85310364    4.90999985    2.39000010
   20.09055710   88.16619873    4.90999985    2.39000010
   20.09111214   92.90209961    4.90999985    2.39000010
   20.09166718   91.92120361    4.90999985    2.39000010
   20.09222221   97.74369812    4.90999985    2.39000010
   20.09277916   92.90229797    4.90999985    2.39000010
   20.09333420   85.12979889    4.90999985    2.39000010
   20.09388924   92.55500031    4.90999985    2.39000010
   20.09444427   91.57160187    4.90999985    2.39000010
   20.09500122   90.89749908    4.90999985    2.39000010
   20.09555626   94.61789703    4.90999985    2.39000010
   20.09611130   97.31009674    4.90999985    2.39000010
   20.09666824   88.85620117    4.90999985    2.39000010
   20.09722328   91.30619812    4.90999985    2.39000010
   20.09777832   86.52559662    4.90999985    2.39000010
   20.09833336   95.09459686    4.90999985    2.39000010
   20.09889030   99.55220032    4.90999985    2.39000010
   20.09944534   98.69580078    4.90999985    2.39000010
   20.10000038   91.16380310    4.90999985    2.39000010
   20.10055542   97.71849823    4.90999985    2.39000010
   20.10111237   92.48690033    4.90999985    2.39000010
   20.10166740   90.21199799    4.90999985    2.39000010
   20.10222244   94.06079865    4.90999985    2.39000010
   20.10277748   94.70310211    4.90999985    2.39000010
   20.10333443   92.21479797    4.90999985    2.39000010
   20.10388947   93.53700256    4.90999985    2.39000010
   20.10444450   99.01020050    4.90999985    2.39000010
   20.10499954   93.65910339    4.90999985    2.39000010
   20.10555649   93.52899933    4.90999985    2.39000010
   20.10611153   86.86119843    4.90999985    2.39000010
   20.10666656   98.41310120    4.90999985    2.39000010
   20.10722351   84.72850037    4.90999985    2.39000010
   20.10777855   98.21869659    4.90999985    2.39000010
   20.10833359   90.42289734    4.90999985    2.39000010
   20.10888863   90.58589935    4.90999985    2.39000010
   20.10944557   95.60880280    4.90999985    2.39000010
   20.11000061   94.43460083    4.90999985    2.36999989
   20.11055565   86.34359741    4.90999985    2.36999989
   20.11111069   92.62989807    4.90999985    2.36999989
   20.11166763   84.93930054    4.90999985    2.36999989
   20.11222267   89.29620361    4.90999985    2.39000010
   20.11277771   89.55940247    4.90999985    2.39000010
   20.11333466   87.07740021    4.90999985    2.39000010
   20.11388969   91.16770172    4.90999985    2.39000010
   20.11444473   85.17680359    4.90999985    2.39000010
   20.11499977   89.49179840    4.90999985    2.39000010
   20.11555672   93.19239807    4.90999985    2.39000010
   20.11611176   90.76820374    4.90999985    2.39000010
   20.11666679   93.94660187    4.90999985    2.39000010
   20.11722183   87.63939667    4.90999985    2.39000010
   20.11777878   92.02870178    4.90999985    2.39000010
   20.11833382   84.30300140    4.90999985    2.39000010
   20.11888885   96.61470032    4.90999985    2.39000010
   20.11944389   95.42050171    4.90999985    2.36999989
   20.12000084   90.02279663    4.90999985    2.36999989
   20.12055588   97.55670166    4.90999985    2.36999989
   20.12111092   92.66649628    4.90999985    2.36999989
   20.12166595   96.66799927    4.90999985    2.36999989
   20.12222290   93.05789948    4.90999985    2.36999989
   20.12277794   92.47730255    4.90999985    2.36999989
   20.12333298   91.17569733    4.90999985    2.36999989
   20.12388992   95.17880249    4.90999985    2.36999989
   20.12444496   93.98490143    4.90999985    2.36999989
   20.12500000   97.22570038    4.90999985    2.36999989
   20.12555504   91.88809967    4.90999985    2.36999989
   20.12611198   88.27480316    4.90999985    2.36999989
   20.12666702   94.59649658    4.90999985    2.36999989
   20.12722206   85.63939667    4.90999985    2.39000010
   20.12777710   83.85289764    4.90999985    2.39000010
   20.12833405   92.34429932    4.90999985    2.39000010
   20.12888908   94.05410004    4.90999985    2.36999989
   20.12944412   89.50199890    4.90999985    2.36999989
   20.13000107   84.41349792    4.90999985    2.36999989
   20.13055611   85.94049835    4.90999985    2.36999989
   20.13111115   90.48049927    4.90999985    2.36999989
   20.13166618   87.99559784    4.90999985    2.36999989
   20.13222313   88.72940063    4.90999985    2.36999989
   20.13277817   87.93979645    4.90999985    2.36999989
   20.13333321   94.36540222    4.90999985    2.36999989
   20.13388824   88.74060059    4.90999985    2.36999989
   20.13444519   88.66870117    4.90999985    2.36999989
   20.13500023   87.22100067    4.90999985    2.36999989
   20.13555527   88.22519684    4.90999985    2.36999989
   20.13611031   91.05280304    4.90999985    2.36999989
   20.13666725   90.70290375    4.90999985    2.36999989
   20.13722229   92.19029999    4.90999985    2.36999989
   20.13777733   87.47789764    4.90999985    2.36999989
   20.13833237   90.11969757    4.90999985    2.36999989
   20.13888931   91.46649933    4.90999985    2.36999989
   20.13944435   -1.00000000    4.90999985    2.36999989
   20.13999939   -1.00000000    4.90999985    2.36999989
   20.14055634   -1.00000000    4.90999985    2.36999989
   20.14111137   -1.00000000    4.90999985    2.36999989
   20.14166641   -1.00000000    4.90999985    2.36999989
   20.14222145   -1.00000000    4.90999985    2.36999989
   20.14277840   -1.00000000    4.90999985    2.36999989
   20.14333344   -1.00000000    4.90999985    2.36999989
   20.14388847   -1.00000000    4.90999985    2.36999989
   20.14444351   -1.00000000    4.90999985    2.36999989
   20.14500046   -1.00000000    4.90999985    2.34999990
   20.14555550   -1.00000000    4.90999985    2.34999990
   20.14611053   -1.00000000    4.90999985    2.34999990
   20.14666748   -1.00000000    4.90999985    2.34999990
   20.14722252   -1.00000000    4.90999985    2.34999990
   20.14777756   -1.00000000    4.90999985    2.34999990
   20.14833260   -1.00000000    4.90999985    2.34999990
   20.14888954   -1.00000000    4.90999985    2.34999990
   20.14944458   -1.00000000    4.90999985    2.34999990
   20.14999962   -1.00000000    4.90999985    2.34999990
   20.15055466   -1.00000000    4.90999985    2.34999990
   20.15111160   -1.00000000    4.90999985    2.34999990
   20.15166664   -1.00000000    4.90999985    2.34999990
   20.15222168   -1.00000000    4.90999985    2.34999990
   20.15277672   -1.00000000    4.90999985    2.34999990
   20.15333366   -1.00000000    4.90999985    2.34999990
   20.15388870   -1.00000000    4.90999985    2.34999990
   20.15444374   -1.00000000    4.90999985    2.34999990
   20.15499878   -1.00000000    4.90999985    2.34999990
   20.15555573   -1.00000000    4.90999985    2.34999990
   20.15611076   -1.00000000    4.90999985    2.34999990
   20.15666580   -1.00000000    4.90999985    2.34999990
   20.15722275   -1.00000000    4.90999985    2.34999990
   20.15777779   -1.00000000    4.90999985    2.34999990
   20.15833282   -1.00000000    4.90999985    2.34999990
   20.15888786   -1.00000000    4.90999985    2.34999990
   20.15944481   -1.00000000    4.90999985    2.34999990
   20.15999985   -1.00000000    4.90999985    2.34999990
   20.16055489   -1.00000000    4.90999985    2.34999990
   20.16110992   -1.00000000    4.90999985    2.34999990
   20.16166687   -1.00000000    4.90999985    2.34999990
   20.16194344   -1.00000000    4.90999985    2.34999990
   20.16250038   -1.00000000    4.90999985    2.34999990
   20.16305542   -1.00000000    4.90999985    2.34999990
   20.16361046   -1.00000000    4.90999985    2.34999990
   20.16416550   -1.00000000    4.90999985    2.34999990
   20.16472244   -1.00000000    4.90999985    2.34999990
   20.16527748   -1.00000000    4.90999985    2.34999990
   20.16583252   -1.00000000    4.90999985    2.34999990
   20.16638756   -1.00000000    4.90999985    2.34999990
   20.16694450   -1.00000000    4.90999985    2.34999990
   20.16749954   -1.00000000    4.90999985    2.32999992
   20.16833305   -1.00000000    4.90999985    2.32999992
   20.16888809   -1.00000000    4.90999985    2.32999992
   20.16944313   -1.00000000    4.90999985    2.32999992
   20.17000008   -1.00000000    4.90999985    2.32999992
   20.17055511   -1.00000000    4.90999985    2.32999992
   20.17111015   -1.00000000    4.90999985    2.32999992
   20.17166519   -1.00000000    4.90999985    2.32999992
   20.17222214   -1.00000000    4.90999985    2.32999992
   20.17277718   -1.00000000    4.90999985    2.32999992
   20.17333221   -1.00000000    4.90999985    2.32999992
   20.17388916   -1.00000000    4.90999985    2.32999992
   20.17444420   -1.00000000    4.90999985    2.32999992
   20.17499924   -1.00000000    4.90999985    2.34999990
   20.17555428  295.35699463    4.90999985    2.34999990
   20.17611122  279.00698853    4.90999985    2.34999990
   20.17666626  282.84899902    4.90999985    2.34999990
   20.17722130  274.95401001    4.90999985    2.34999990
   20.17777634  275.06100464    4.90999985    2.34999990
   20.17833328  284.65399170    4.90999985    2.34999990
   20.17888832  256.50601196    4.90999985    2.32999992
   20.17944336  287.17599487    4.90999985    2.32999992
   20.18027687  266.93701172    4.90999985    2.32999992
   20.18083191  281.69900513    4.90999985    2.32999992
   20.18138885  264.34799194    4.90999985    2.32999992
   20.18194389  254.19999695    4.90999985    2.32999992
   20.18249893  222.85200500    4.90999985    2.32999992
   20.18305397  207.81100464    4.90999985    2.32999992
   20.18361092  215.85000610    4.90999985    2.32999992
   20.18416595  200.73100281    4.90999985    2.32999992
   20.18472099  199.43400574    4.90999985    2.32999992
   20.18527603  168.11099243    4.90999985    2.32999992
   20.18583298  150.80000305    4.90999985    2.32999992
   20.18638802  143.26600647    4.90999985    2.32999992
   20.18694305  123.21499634    4.90999985    2.32999992
   20.18750000  111.38999939    4.90999985    2.32999992
   20.18805504  106.54100037    4.90999985    2.32999992
   20.18861008   94.70240021    4.90999985    2.32999992
   20.18916512   93.88120270    4.90999985    2.32999992
   20.18972206   93.19830322    4.90999985    2.32999992
   20.19027710   88.90239716    4.90999985    2.32999992
   20.19083214   89.46839905    4.90999985    2.30999994
   20.19138718   89.77310181    4.90999985    2.30999994
   20.19194412   88.15630341    4.90999985    2.30999994
   20.19249916   92.87650299    4.90999985    2.30999994
   20.19305420   96.00949860    4.90999985    2.30999994
   20.19361115   89.36769867    4.90999985    2.30999994
   20.19416618  106.99199677    4.90999985    2.30999994
   20.19472122   93.99030304    4.90999985    2.30999994
   20.19527626   88.13529968    4.90999985    2.30999994
   20.19583321   95.29720306    4.90999985    2.30999994
   20.19638824   88.08229828    4.90999985    2.30999994
   20.19694328   90.97540283    4.90999985    2.30999994
   20.19749832   92.27610016    4.90999985    2.30999994
   20.19805527   99.35679626    4.90999985    2.30999994
   20.19861031   98.49649811    4.90999985    2.30999994
   20.19944382   90.77300262    4.90999985    2.30999994
   20.20000076   90.32589722    4.90999985    2.30999994
   20.20055580   82.26770020    4.90999985    2.30999994
   20.20111275   88.64279938    4.90999985    2.30999994
   20.20166779   89.21869659    4.90999985    2.30999994
   20.20222282   87.29959869    4.90999985    2.30999994
   20.20277786   91.69480133    4.90999985    2.30999994
   20.20333481   87.19370270    4.90999985    2.30999994
   20.20388985   85.04380035    4.90999985    2.30999994
   20.20444489   83.32689667    4.90999985    2.30999994
   20.20499992   89.73619843    4.90999985    2.30999994
   20.20555687   85.72930145    4.90999985    2.30999994
   20.20611191   89.24179840    4.90999985    2.30999994
   20.20666695   86.65969849    4.90999985    2.30999994
   20.20722389   92.46990204    4.90999985    2.30999994
   20.20777893   87.91999817    4.90999985    2.30999994
   20.20833397   83.86920166    4.90999985    2.30999994
   20.20888901   94.25589752    4.90999985    2.30999994
   20.20944595   91.57869720    4.90999985    2.30999994
   20.21000099   95.31790161    4.90999985    2.30999994
   20.21055603   90.95420074    4.90999985    2.30999994
   20.21138954   93.78060150    4.90999985    2.28999996
   20.21194458   96.21669769    4.90999985    2.28999996
   20.21250153   92.73429871    4.90999985    2.28999996
   20.21305656   88.53130341    4.90999985    2.28999996
   20.21361160   95.08480072    4.90999985    2.28999996
   20.21416664   89.63110352    4.90999985    2.28999996
   20.21472359   92.70729828    4.90999985    2.28999996
   20.21527863   91.17980194    4.90999985    2.28999996
   20.21583366   92.37300110    4.90999985    2.28999996
   20.21638870   93.04479980    4.90999985    2.28999996
   20.21694565   93.76999664    4.90999985    2.28999996
   20.21750069   90.09919739    4.90999985    2.28999996
   20.21805573   90.93099976    4.90999985    2.28999996
   20.21861076   88.12290192    4.90999985    2.28999996
   20.21916771   79.74240112    4.90999985    2.28999996
   20.21972275   85.82579803    4.90999985    2.28999996
   20.22027779   88.74549866    4.90999985    2.28999996
   20.22083473   90.87310028    4.90999985    2.28999996
   20.22138977   87.31900024    4.90999985    2.28999996
   20.22194481   92.07479858    4.90999985    2.28999996
   20.22249985   87.54499817    4.90999985    2.28999996
   20.22305679   88.03040314    4.90999985    2.26999998
   20.22361183   93.02519989    4.90999985    2.26999998
   20.22416687   88.90989685    4.90999985    2.26999998
   20.22472191   84.27089691    4.90999985    2.26999998
   20.22527885   94.33480072    4.90999985    2.26999998
   20.22583389   94.88880157    4.90999985    2.26999998
   20.22638893   95.01950073    4.90999985    2.26999998
   20.22694588   88.31379700    4.90999985    2.26999998
   20.22777748   92.26580048    4.90999985    2.26999998
   20.22833443   98.98100281    4.90999985    2.26999998
   20.22888947  103.79299927    4.90999985    2.26999998
   20.22944450  104.05300140    4.90999985    2.26999998
   20.23000145  104.84899902    4.90999985    2.26999998
   20.23055649  103.07700348    4.90999985    2.25000000
   20.23111153  112.80899811    4.90999985    2.25000000
   20.23166656  106.91200256    4.90999985    2.25000000
   20.23222351  104.05699921    4.90999985    2.25000000
   20.23277855  101.79100037    4.90999985    2.25000000
   20.23333359   91.22309875    4.90999985    2.25000000
   20.23388863   89.37470245    4.90999985    2.25000000
   20.23444557   87.51480103    4.90999985    2.26999998
   20.23527718   85.71369934    4.90999985    2.26999998
   20.23583412   79.32109833    4.90999985    2.26999998
   20.23638916   86.05329895    4.90999985    2.26999998
   20.23694420   77.04180145    4.90999985    2.26999998
   20.23750114   78.51589966    4.90999985    2.26999998
   20.23805618   95.15820313    4.90999985    2.26999998
   20.23861122   88.13169861    4.90999985    2.25000000
   20.23944473   88.23950195    4.90999985    2.25000000
   20.23999977   84.17369843    4.90999985    2.25000000
   20.24055672   78.48269653    4.90999985    2.25000000
   20.24111176   77.25620270    4.90999985    2.25000000
   20.24166679   79.11199951    4.90999985    2.25000000
   20.24222183   77.77040100    4.90999985    2.25000000
   20.24277878   76.24189758    4.90999985    2.25000000
   20.24333382   74.78690338    4.90999985    2.25000000
   20.24388885   77.08309937    4.90999985    2.25000000
   20.24444389   77.15950012    4.90999985    2.25000000
   20.24500084   79.02559662    4.90999985    2.25000000
   20.24555588   84.24710083    4.90999985    2.25000000
   20.24611092   83.96839905    4.90999985    2.25000000
   20.24666786   88.77539825    4.90999985    2.25000000
   20.24722290   90.56310272    4.90999985    2.25000000
   20.24777794   90.10310364    4.90999985    2.25000000
   20.24833298   88.59500122    4.90999985    2.25000000
   20.24888992   93.02040100    4.90999985    2.25000000
   20.24944496   90.88099670    4.90999985    2.25000000
   20.25000000   87.10299683    4.90999985    2.25000000
   20.25055504   88.72209930    4.90999985    2.25000000
   20.25111198   87.61630249    4.90999985    2.25000000
   20.25166702   94.09380341    4.90999985    2.25000000
   20.25222206   90.85489655    4.90999985    2.25000000
   20.25277710   89.19640350    4.90999985    2.25000000
   20.25333405   93.10269928    4.90999985    2.25000000
   20.25444412   94.15889740    4.90999985    2.23000002
   20.25583267   89.76830292    4.90999985    2.23000002
   20.25638962   88.86139679    4.90999985    2.23000002
   20.25694466   88.10929871    4.90999985    2.23000002
   20.25749969   89.99490356    4.90999985    2.23000002
   20.25805473   96.84380341    4.90999985    2.23000002
   20.25888824   89.17410278    4.90999985    2.23000002
   20.25944519   95.19789886    4.90999985    2.23000002
   20.26000023   94.36740112    4.90999985    2.23000002
   20.26055527   92.13990021    4.90999985    2.23000002
   20.26138878   92.06690216    4.90999985    2.23000002
   20.26194382   88.90979767    4.90999985    2.23000002
   20.26250076   92.53639984    4.90999985    2.21000004
   20.26305580   94.14040375    4.90999985    2.21000004
   20.26361084   87.34690094    4.90999985    2.21000004
   20.26416588   92.66380310    4.90999985    2.21000004
   20.26472282   92.72489929    4.90999985    2.21000004
   20.26527786   90.66249847    4.90999985    2.21000004
   20.26583290   92.29979706    4.90999985    2.21000004
   20.26638794   86.91560364    4.90999985    2.21000004
   20.26694489   85.19139862    4.90999985    2.21000004
   20.26749992   89.92780304    4.90999985    2.21000004
   20.26805496   87.04440308    4.90999985    2.21000004
   20.26861000   89.35410309    4.90999985    2.21000004
   20.26916695   89.21730042    4.90999985    2.21000004
   20.26972198   93.87429810    4.90999985    2.21000004
   20.27027702   92.30220032    4.90999985    2.21000004
   20.27083397   91.70670319    4.90999985    2.21000004
   20.27138901   91.09169769    4.90999985    2.21000004
   20.27194405   93.38349915    4.90999985    2.21000004
   20.27249908   85.92630005    4.90999985    2.21000004
   20.27305603   94.66919708    4.90999985    2.21000004
   20.27361107   87.08049774    4.90999985    2.21000004
   20.27416611   88.49310303    4.90999985    2.21000004
   20.27472115   85.62249756    4.90999985    2.21000004
   20.27527809   91.55950165    4.90999985    2.21000004
   20.27583313   85.23719788    4.90999985    2.21000004
   20.27638817   92.85359955    4.90999985    2.21000004
   20.27694511   89.45980072    4.90999985    2.21000004
   20.27750015   90.50070190    4.90999985    2.21000004
   20.27805519   93.21549988    4.90999985    2.21000004
   20.27861023   95.25060272    4.90999985    2.21000004
   20.27916718   84.38510132    4.90999985    2.21000004
   20.27972221   90.36669922    4.90999985    2.21000004
   20.28027725   93.65399933    4.90999985    2.21000004
   20.28083229   91.42710114    4.90999985    2.21000004
   20.28138924   98.52439880    4.90999985    2.21000004
   20.28194427   90.75219727    4.90999985    2.19000006
   20.28249931   87.54679871    4.90999985    2.19000006
   20.28305435   90.54769897    4.90999985    2.19000006
   20.28361130   95.61129761    4.90999985    2.19000006
   20.28416634   88.87390137    4.90999985    2.19000006
   20.28472137   93.71710205    4.90999985    2.19000006
   20.28527641   95.24980164    4.90999985    2.19000006
   20.28583336   89.56880188    4.90999985    2.19000006
   20.28638840   93.71269989    4.90999985    2.19000006
   20.28722191   90.48739624    4.90999985    2.19000006
   20.28750038   90.52629852    4.90999985    2.19000006
   20.28805542   89.75050354    4.90999985    2.19000006
   20.28861046   86.61440277    4.90999985    2.19000006
   20.28916550   96.15529633    4.90999985    2.19000006
   20.28972244   87.16549683    4.90999985    2.19000006
   20.29055595   87.65699768    4.90999985    2.19000006
   20.29111099   96.84529877    4.90999985    2.19000006
   20.29166603   98.92189789    4.90999985    2.19000006
   20.29222107   90.01989746    4.90999985    2.19000006
   20.29277802   92.72869873    4.90999985    2.19000006
   20.29333305   92.41259766    4.90999985    2.19000006
   20.29388809   94.57039642    4.90999985    2.17000008
   20.29444313   88.47129822    4.90999985    2.17000008
   20.29500008   92.55210114    4.90999985    2.17000008
   20.29555511   91.17449951    4.90999985    2.17000008
   20.29611015   98.15950012    4.90999985    2.17000008
   20.29666710   93.08260345    4.90999985    2.17000008
   20.29722214   95.68280029    4.90999985    2.17000008
   20.29777718   90.45059967    4.90999985    2.17000008
   20.29833221   91.16320038    4.90999985    2.17000008
   20.29888916   88.74369812    4.90999985    2.17000008
   20.29944420   95.34929657    4.90999985    2.17000008
   20.29999924   95.60109711    4.90999985    2.17000008
   20.30055428   91.12290192    4.90999985    2.17000008
   20.30111122   85.16510010    4.90999985    2.17000008
   20.30166626   94.35970306    4.90999985    2.17000008
   20.30222130   91.05660248    4.90999985    2.17000008
   20.30277634   90.58809662    4.90999985    2.17000008
   20.30333328   88.23699951    4.90999985    2.17000008
   20.30388832   89.68329620    4.90999985    2.17000008
   20.30444336   92.96820068    4.90999985    2.17000008
   20.30499840   95.89610291    4.90999985    2.17000008
   20.30555534   97.54340363    4.90999985    2.15000010
   20.30611038   97.38950348    4.90999985    2.15000010
   20.30666542   91.97940063    4.90999985    2.15000010
   20.30722237  100.06300354    4.90999985    2.15000010
   20.30777740   93.97370148    4.90999985    2.15000010
   20.30833244   93.85119629    4.90999985    2.15000010
   20.30888748   89.90670013    4.90999985    2.15000010
   20.30944443   92.43219757    4.90999985    2.15000010
   20.30999947   93.17140198    4.90999985    2.13000011
   20.31055450   94.00569916    4.90999985    2.13000011
   20.31138802   89.52410126    4.90999985    2.13000011
   20.31194305   77.16670227    4.90999985    2.13000011
   20.31222153   95.47869873    4.90999985    2.13000011
   20.31277657   86.68689728    4.90999985    2.13000011
   20.31333351   89.29360199    4.90999985    2.15000010
   20.31416512   94.38860321    4.90999985    2.15000010
   20.31472206   93.41369629    4.90999985    2.15000010
   20.31527710   89.57060242    4.90999985    2.15000010
   20.31583214   93.59919739    4.90999985    2.15000010
   20.31638718   96.78140259    4.90999985    2.15000010
   20.31694603   98.10649872    4.90999985    2.15000010
   20.31750107   96.72579956    4.90999985    2.15000010
   20.31805611   90.52909851    4.90999985    2.15000010
   20.31861115   89.55380249    4.90999985    2.15000010
   20.31916809   95.71350098    4.90999985    2.15000010
   20.31972313   87.83439636    4.90999985    2.15000010
   20.32027817   94.78959656    4.90999985    2.15000010
   20.32083511   95.49680328    4.90999985    2.15000010
   20.32139015   82.95580292    4.90999985    2.15000010
   20.32194519   78.36609650    4.90999985    2.13000011
   20.32250023   75.56629944    4.90999985    2.13000011
   20.32305717   81.58070374    4.90999985    2.13000011
   20.32361221   89.96849823    4.90999985    2.13000011
   20.32416725   93.23229980    4.90999985    2.13000011
   20.32472229   89.72630310    4.90999985    2.13000011
   20.32527924   95.05909729    4.90999985    2.13000011
   20.32583427   89.61940002    4.90999985    2.13000011
   20.32638931   93.66359711    4.90999985    2.13000011
   20.32694626   88.03910065    4.90999985    2.13000011
   20.32750130   98.23750305    4.90999985    2.13000011
   20.32805634   91.92030334    4.90999985    2.13000011
   20.32861137   91.33640289    4.90999985    2.13000011
   20.32916832   93.94370270    4.90999985    2.11999989
   20.32972336   98.25839996    4.90999985    2.11999989
   20.33027840   95.38289642    4.90999985    2.11999989
   20.33083344   91.82830048    4.90999985    2.11999989
   20.33139038   92.33820343    4.90999985    2.11999989
   20.33194542   93.25140381    4.90999985    2.11999989
   20.33250046   94.08059692    4.90999985    2.11999989
   20.33305550   92.99810028    4.90999985    2.11999989
   20.33361244   90.13330078    4.90999985    2.11999989
   20.33416748   87.32769775    4.90999985    2.11999989
   20.33472252   90.20410156    4.90999985    2.11999989
   20.33527756   86.38929749    4.90999985    2.11999989
   20.33583450   92.58899689    4.90999985    2.11999989
   20.33638954   93.29579926    4.90999985    2.11999989
   20.33694458   84.25610352    4.90999985    2.11999989
   20.33750153   89.29989624    4.90999985    2.11999989
   20.33805656   90.12989807    4.90999985    2.11999989
   20.33861160   84.16619873    4.90999985    2.11999989
   20.33916664   87.93499756    4.90999985    2.11999989
   20.33972359   95.98329926    4.90999985    2.11999989
   20.34027863   92.75910187    4.90999985    2.11999989
   20.34083366   98.13349915    4.90999985    2.11999989
   20.34138870   94.64749908    4.90999985    2.09999990
   20.34194565   95.81330109    4.90999985    2.09999990
   20.34250069  101.16899872    4.90999985    2.09999990
   20.34305573   93.76750183    4.90999985    2.09999990
   20.34361267   95.05169678    4.90999985    2.09999990
   20.34416771   99.20860291    4.90999985    2.09999990
   20.34472275  101.61000061    4.90999985    2.09999990
   20.34527779   94.43820190    4.90999985    2.09999990
   20.34611130   96.34400177    4.90999985    2.09999990
   20.34666824   92.37500000    4.90999985    2.09999990
   20.34722328   97.98210144    4.90999985    2.09999990
   20.34777832   99.07479858    4.90999985    2.09999990
   20.34833336  102.04299927    4.90999985    2.09999990
   20.34889030   98.50240326    4.90999985    2.09999990
   20.34944534   94.35510254    4.90999985    2.09999990
   20.35000038  100.00499725    4.90999985    2.09999990
   20.35055542   98.23090363    4.90999985    2.09999990
   20.35111237  102.61499786    4.90999985    2.09999990
   20.35166740  100.47699738    4.90999985    2.09999990
   20.35222244   97.80580139    4.90999985    2.09999990
   20.35277748  103.35199738    4.90999985    2.09999990
   20.35333443  101.33699799    4.90999985    2.09999990
   20.35388947  106.04399872    4.90999985    2.09999990
   20.35444450  100.51699829    4.90999985    2.09999990
   20.35499954  105.15399933    4.90999985    2.09999990
   20.35555649  111.08200073    4.90999985    2.09999990
   20.35611153  104.35299683    4.90999985    2.09999990
   20.35666656  100.87100220    4.90999985    2.09999990
   20.35722351  107.50299835    4.90999985    2.09999990
   20.35777855  109.49400330    4.90999985    2.09999990
   20.35833359  105.92500305    4.90999985    2.07999992
   20.35888863  101.03600311    4.90999985    2.07999992
   20.35944557   99.94789886    4.90999985    2.07999992
   20.36000061  112.97299957    4.90999985    2.07999992
   20.36055565   99.83850098    4.90999985    2.07999992
   20.36111069   96.59480286    4.90999985    2.07999992
   20.36166763  100.55300140    4.90999985    2.07999992
   20.36222267  102.34799957    4.90999985    2.07999992
   20.36277771  101.15399933    4.90999985    2.07999992
   20.36333466   97.50669861    4.90999985    2.07999992
   20.36388969  101.87799835    4.90999985    2.07999992
   20.36444473  101.36299896    4.90999985    2.07999992
   20.36499977  105.50499725    4.90999985    2.07999992
   20.36555672  106.47200012    4.90999985    2.07999992
   20.36611176  100.19999695    4.90999985    2.07999992
   20.36666679  106.72799683    4.90999985    2.07999992
   20.36722183  107.59400177    4.90999985    2.07999992
   20.36777878  100.33000183    4.90999985    2.07999992
   20.36833382   97.55100250    4.90999985    2.07999992
   20.36888885   97.63159943    4.90999985    2.07999992
   20.36944389  101.77300262    4.90999985    2.07999992
   20.37000084  102.69100189    4.90999985    2.05999994
   20.37055588  101.13999939    4.90999985    2.05999994
   20.37111092   96.31040192    4.90999985    2.05999994
   20.37166595  107.86699677    4.90999985    2.05999994
   20.37222290  103.46399689    4.90999985    2.05999994
   20.37277794  100.65299988    4.90999985    2.05999994
   20.37333298  112.42400360    4.90999985    2.05999994
   20.37388992  102.21399689    4.90999985    2.05999994
   20.37444496  106.47599792    4.90999985    2.05999994
   20.37500000  102.85600281    4.90999985    2.05999994
   20.37555504  114.14800262    4.90999985    2.05999994
   20.37611198   98.66390228    4.90999985    2.05999994
   20.37666702  109.93499756    4.90999985    2.05999994
   20.37722206   91.66719818    4.90999985    2.05999994
   20.37777710  107.62300110    4.90999985    1.73000002
   20.37833405  100.13099670    4.90999985    1.73000002
   20.37888908  102.54199982    4.90999985    1.73000002
   20.37944412  105.44799805    4.90999985    1.73000002
   20.38000107  104.85700226    4.90999985    1.73000002
   20.38055611   98.59709930    4.90999985    1.73000002
   20.38111115   97.82270050    4.90999985    1.73000002
   20.38166618   93.63169861    4.90999985    1.73000002
   20.38222313   95.65579987    4.90999985    1.73000002
   20.38277817   93.72339630    4.90999985    1.73000002
   20.38333321   98.05400085    4.90999985    1.73000002
   20.38388824   97.26399994    4.90999985    1.73000002
   20.38444519   97.55639648    4.90999985    1.73000002
   20.38500023  102.02600098    4.90999985    1.73000002
   20.38555527   96.63990021    4.90999985    1.73000002
   20.38611031   99.47380066    4.90999985    1.73000002
   20.38666725  104.55699921    4.90999985    1.73000002
   20.38722229  100.04599762    4.90999985    1.73000002
   20.38777733   95.84780121    4.90999985    1.73000002
   20.38833237  100.31400299    4.90999985    1.73000002
   20.38888931  102.86900330    4.90999985    1.73000002
   20.38944435  102.05500031    4.90999985    1.73000002
   20.38999939   95.78749847    4.90999985    1.73000002
   20.39055634   98.44480133    4.90999985    1.73000002
   20.39111137  102.27500153    4.90999985    1.73000002
   20.39166641  121.21800232    4.90999985    1.73000002
   20.39333344  105.31300354    4.90999985    1.73000002
   20.39388847  102.02799988    4.90999985    1.73000002
   20.39444351   97.52369690    4.90999985    1.73000002
   20.39500046  101.42600250    4.90999985    1.73000002
   20.39583397  104.52300262    4.90999985    1.73000002
   20.39638901  101.10500336    4.90999985    1.73000002
   20.39694405  100.85600281    4.90999985    1.73000002
   20.39749908   99.62760162    4.90999985    1.73000002
   20.39805603   96.52359772    4.90999985    1.73000002
   20.39861107  102.73699951    4.90999985    1.73000002
   20.39916611   94.70159912    4.90999985    1.73000002
   20.39972115   94.83940125    4.90999985    1.73000002
   20.40027809   96.03279877    4.90999985    1.73000002
   20.40083313  101.79699707    4.90999985    1.73000002
   20.40138817   97.26560211    4.90999985    1.73000002
   20.40194321   95.15930176    4.90999985    1.73000002
   20.40250015   91.89579773    4.90999985    1.73000002
   20.40305519   97.98500061    4.90999985    1.73000002
   20.40361023   95.39790344    4.90999985    1.73000002
   20.40416718   96.73529816    4.90999985    1.73000002
   20.40472221   96.63339996    4.90999985    1.73000002
   20.40527725   93.67549896    4.90999985    1.73000002
   20.40583229   97.00430298    4.90999985    1.73000002
   20.40638924   99.15989685    4.90999985    1.73000002
   20.40694427   95.61239624    4.90999985    1.73000002
   20.40749931   98.96749878    4.90999985    1.73000002
   20.40805435   96.30549622    4.90999985    1.73000002
   20.40861130  101.39199829    4.90999985    1.73000002
   20.40888786   94.66580200    4.90999985    1.73000002
   20.40944481   90.76329803    4.90999985    1.73000002
   20.41027832   94.85089874    4.90999985    1.73000002
   20.41055489   99.70919800    4.90999985    1.73000002
   20.41110992   92.40350342    4.90999985    1.73000002
   20.41166687   89.09839630    4.90999985    1.73000002
   20.41222191   96.09079742    4.90999985    1.73000002
   20.41277695  100.21399689    4.90999985    1.73000002
   20.41333389  102.29000092    4.90999985    1.73000002
   20.41388893   98.80930328    4.90999985    1.73000002
   20.41444397   95.39689636    4.90999985    1.73000002
   20.41499901   92.63449860    4.90999985    1.73000002
   20.41555595   99.47820282    4.90999985    1.73000002
   20.41611099   96.13690186    4.90999985    1.73000002
   20.41666603  104.96299744    4.90999985    1.73000002
   20.41722107  100.84300232    4.90999985    1.73000002
   20.41777802   96.35289764    4.90999985    1.73000002
   20.41833305   96.28250122    4.90999985    1.73000002
   20.41888809  101.13600159    4.90999985    1.73000002
   20.41944313  105.99500275    4.90999985    1.73000002
   20.42000008  100.51599884    4.90999985    1.73000002
   20.42055511  103.04699707    4.90999985    1.73000002
   20.42111015  104.01399994    4.90999985    1.73000002
   20.42166519  103.30200195    4.90999985    1.73000002
   20.42222214   96.81860352    4.90999985    1.73000002
   20.42277718   98.33660126    4.90999985    1.73000002
   20.42333221   95.37280273    4.90999985    1.73000002
   20.42388916   97.69889832    4.90999985    1.73000002
   20.42444420   98.84179688    4.90999985    1.73000002
   20.42499924  100.71600342    4.90999985    1.73000002
   20.42555428   93.61250305    4.90999985    1.73000002
   20.42611122   95.84400177    4.90999985    1.73000002
   20.42666626   95.11039734    4.90999985    1.73000002
   20.42722130   94.69390106    4.90999985    1.73000002
   20.42777634   94.80349731    4.90999985    1.73000002
   20.42833328   97.58910370    4.90999985    1.73000002
   20.42888832   97.46939850    4.90999985    1.73000002
   20.42944336  101.19200134    4.90999985    1.73000002
   20.43000031  109.49600220    4.90999985    1.73000002
   20.43055534  109.81600189    4.90999985    1.73000002
   20.43111038  107.36000061    4.90999985    1.73000002
   20.43166542   98.81469727    4.90999985    1.73000002
   20.43222237   97.36479950    4.90999985    1.73000002
   20.43277740  101.86000061    4.90999985    1.73000002
   20.43333244   99.89810181    4.90999985    1.73000002
   20.43388748  102.45400238    4.90999985    1.73000002
   20.43444443  109.96600342    4.90999985    1.73000002
   20.43499947   98.78309631    4.90999985    1.73000002
   20.43555450   97.10579681    4.90999985    1.73000002
   20.43610954  100.62999725    4.90999985    1.73000002
   20.43666649   97.88349915    4.90999985    1.73000002
   20.43722153  103.61100006    4.90999985    1.73000002
   20.43777657  100.26399994    4.90999985    1.73000002
   20.43833160  101.45500183    4.90999985    1.73000002
   20.43888855  103.80899811    4.90999985    1.73000002
   20.43944359   99.46900177    4.90999985    1.73000002
   20.43999863   98.32140350    4.90999985    1.73000002
   20.44055557  108.05100250    4.90999985    1.73000002
   20.44111061   93.52610016    4.90999985    1.73000002
   20.44166565   99.57330322    4.90999985    1.73000002
   20.44222069  104.43499756    4.90999985    1.60000002
   20.44277763  101.30100250    4.90999985    1.38000000
   20.44333267  103.21700287    4.90999985    1.38000000
   20.44388771  103.90200043    4.90999985    1.38000000
   20.44444275   97.34950256    4.90999985    1.38000000
   20.44499969   97.90409851    4.90999985    1.38000000
   20.44555473  101.37699890    4.90999985    1.38000000
   20.44610977  105.73600006    4.90999985    1.38000000
   20.44666672  102.80799866    4.90999985    1.38000000
   20.44722176  112.78299713    4.90999985    1.38000000
   20.44777679  103.05500031    4.90999985    1.38000000
   20.44833183   97.74220276    4.90999985    1.38000000
   20.44888878  108.01999664    4.90999985    1.38000000
   20.44944382   98.76560211    4.90999985    1.38000000
   20.45000076   95.24179840    4.90999985    1.38000000
   20.45055580  102.89199829    4.90999985    1.38000000
   20.45111275  100.69899750    4.90999985    1.38000000
   20.45166779   96.56580353    4.90999985    1.38000000
   20.45222282   94.28549957    4.90999985    1.38000000
   20.45277786   99.11209869    4.90999985    1.38000000
   20.45333481   99.48639679    4.90999985    1.38000000
   20.45388985  101.21499634    4.90999985    1.38000000
   20.45444489  102.57800293    4.90999985    1.38000000
   20.45499992   94.63220215    4.90999985    1.38000000
   20.45555687  103.11299896    4.90999985    1.38000000
   20.45611191  101.88300323    4.90999985    1.38000000
   20.45666695  100.27500153    4.90999985    1.38000000
   20.45722389   99.58409882    4.90999985    1.38000000
   20.45777893   96.50090027    4.90999985    1.38000000
   20.45861244   98.43900299    4.90999985    1.38000000
   20.45916748  103.45800018    4.90999985    1.38000000
   20.45972252   99.90209961    4.90999985    1.38000000
   20.46027946   93.53540039    4.90999985    1.38000000
   20.46083450   96.75499725    4.90999985    1.38000000
   20.46138954  103.87200165    4.90999985    1.38000000
   20.46194458   94.28739929    4.90999985    1.38000000
   20.46250153  100.13700104    4.90999985    1.38000000
   20.46305656  101.32299805    4.90999985    1.38000000
   20.46361160  107.66400146    4.90999985    1.38000000
   20.46416664   97.78160095    4.90999985    1.38000000
   20.46472359  103.25599670    4.90999985    1.38000000
   20.46527863  102.32800293    4.90999985    1.38000000
   20.46583366   96.60050201    4.90999985    1.38000000
   20.46638870   96.97329712    4.90999985    1.38000000
   20.46694565   96.93170166    4.90999985    1.38000000
   20.46750069   94.67340088    4.90999985    1.38000000
   20.46805573   97.48280334    4.90999985    1.38000000
   20.46861076   97.65489960    4.90999985    1.38000000
   20.46916771   95.54350281    4.90999985    1.38000000
   20.46972275   99.11789703    4.90999985    1.38000000
   20.47027779  105.11900330    4.90999985    1.38000000
   20.47083473   98.96430206    4.90999985    1.38000000
   20.47138977   95.62860107    4.90999985    1.38000000
   20.47194481   99.85240173    4.90999985    1.38000000
   20.47249985  101.38200378    4.90999985    1.38000000
   20.47305679  101.29599762    4.90999985    1.38000000
   20.47361183   87.52369690    4.90999985    1.38000000
   20.47416687  101.49600220    4.90999985    1.38000000
   20.47472191   94.07060242    4.90999985    1.38000000
   20.47527885   97.65139771    4.90999985    1.38000000
   20.47583389   94.54630280    4.90999985    1.38000000
   20.47638893   82.95259857    4.90999985    1.38000000
   20.47694588  112.60900116    4.90999985    1.38000000
   20.47750092   99.40540314    4.90999985    1.38000000
   20.47805595   95.53620148    4.90999985    1.38000000
   20.47861099  104.67800140    4.90999985    1.38000000
   20.47916794  100.24900055    4.90999985    1.38000000
   20.47972298   99.38880157    4.90999985    1.38000000
   20.48027802  100.62699890    4.90999985    1.89999998
   20.48083305   96.80290222    4.90999985    1.89999998
   20.48139000  101.32399750    4.90999985    1.89999998
   20.48194504   97.52469635    4.90999985    1.89999998
   20.48250008   95.62079620    4.90999985    1.89999998
   20.48305511  106.52600098    4.90999985    1.89999998
   20.48361206   98.56220245    4.90999985    1.89999998
   20.48416710  100.05999756    4.90999985    1.89999998
   20.48472214   96.38200378    4.90999985    1.89999998
   20.48527718  101.37899780    4.90999985    1.89999998
   20.48583412   97.03769684    4.90999985    1.89999998
   20.48638916   99.08439636    4.90999985    1.36000001
   20.48694420   94.90309906    4.90999985    1.36000001
   20.48750114  101.91100311    4.90999985    1.30999994
   20.48805618   98.35359955    4.90999985    1.30999994
   20.48861122   95.24749756    4.90999985    1.30999994
   20.48916626   94.68409729    4.90999985    1.09000003
   20.48972321   99.00180054    4.90999985    1.09000003
   20.49027824   97.86650085    4.90999985    1.09000003
   20.49083328  102.18099976    4.90999985    1.00000000
   20.49138832  101.71399689    4.90999985    1.00000000
   20.49194527   94.57700348    4.90999985    1.00000000
   20.49250031  100.39399719    4.90999985    0.94000000
   20.49305534   97.28530121    4.90999985    0.94000000
   20.49361229   97.97270203    4.90999985    0.94000000
   20.49416733   98.99710083    4.90999985    0.86000001
   20.49472237   97.61740112    4.90999985    0.86000001
   20.49527740   96.46649933    4.90999985    0.86000001
   20.49583435   97.93260193    4.90999985    0.76999998
   20.49638939   92.89340210    4.90999985    0.76999998
   20.49694443   97.46389771    4.90999985    0.76999998
   20.49749947   95.03379822    4.90999985    0.64999998
   20.49805641   99.11350250    4.90999985    0.64999998
   20.49861145   98.56420135    4.90999985    0.64999998
   20.49916649  100.66999817    4.90999985    0.64999998
   20.49972153   98.67320251    4.90999985    0.64999998
   20.50027847   96.21189880    4.90999985    0.55000001
   20.50083351  102.09400177    4.90999985    0.55000001
   20.50138855   94.06780243    4.90999985    0.55000001
   20.50194359   95.17130280    4.90999985    0.55000001
   20.50250053   97.21499634    4.90999985    0.51999998
   20.50305557   99.39230347    4.90999985    0.51999998
   20.50361061   93.87310028    4.90999985    0.51999998
   20.50416756  103.37899780    4.90999985    0.51999998
   20.50472260   88.77999878    4.90999985    0.51999998
   20.50527763   97.20429993    4.90999985    0.51999998
   20.50583267   93.10600281    4.90999985    0.40000001
   20.50638962   90.54959869    4.90999985    0.40000001
   20.50694466   92.15370178    4.90999985    0.31999999
   20.50749969   89.28189850    4.90999985    0.31999999
   20.50805473   98.10459900    4.90999985    0.31999999
   20.50861168   99.78220367    4.90999985    0.19000000
   20.50916672   92.67530060    4.90999985    0.17000000
   20.50972176   93.29160309    4.90999985    0.17000000
   20.51027870   89.14920044    4.90999985    0.17000000
   20.51083374   95.57270050    4.90999985    0.13000000
   20.51138878   97.02890015    4.90999985    0.07000000
   20.51194382   94.41750336    4.90999985    0.07000000
   20.51250076   98.69960022    4.90999985    0.07000000
   20.51305580   93.52349854    4.90999985    0.07000000
   20.51361084   94.00170135    4.90999985    0.07000000
   20.51416588  100.86000061    4.90999985    0.07000000
   20.51472282   92.52330017    4.90999985    0.07000000
   20.51527786   95.20310211    4.90999985    0.05000000
   20.51583290   89.02860260    4.90999985    0.05000000
   20.51638794   93.70970154    4.90999985    0.05000000
   20.51694489   96.29869843    4.90999985    0.05000000
   20.51749992  102.02300262    4.90999985    0.05000000
   20.51805496   93.72229767    4.90999985    0.05000000
   20.51861000   97.01129913    4.90999985    0.05000000
   20.51916695   90.25520325    4.90999985    0.05000000
   20.51972198   87.85109711    4.90999985    0.05000000
   20.52027702   88.95040131    4.90999985    0.05000000
   20.52083397   89.80989838    4.90999985    0.05000000
   20.52138901   92.21540070    4.90999985    0.05000000
   20.52194405   91.94909668    4.90999985    0.05000000
   20.52249908   94.75260162    4.90999985    0.01000000
   20.52305603   93.63870239    4.90999985    0.01000000
   20.52361107   88.64859772    4.90999985    0.01000000
   20.52416611   94.85710144    4.90999985    0.01000000
   20.52472115   94.59870148    4.90999985    1.76999998
   20.52527809   92.01409912    4.90999985    1.76999998
   20.52583313   92.06639862    4.90999985    1.76999998
   20.52638817   91.20590210    4.90999985    1.76999998
   20.52694511   88.99430084    4.90999985    1.76999998
   20.52750015   97.27239990    4.90999985    1.76999998
   20.52805519   93.03250122    4.90999985    1.76999998
   20.52861023   93.72760010    4.90999985    1.76999998
   20.52916718   92.30460358    4.90999985    1.76999998
   20.52972221   96.37760162    4.90999985    1.76999998
   20.53027725   74.36150360    4.90999985    1.76999998
   20.53083229   85.07019806    4.90999985    1.76999998
   20.53138924   80.58519745    4.90999985    1.76999998
   20.53194427   88.58509827    4.90999985    1.76999998
   20.53249931   92.92769623    4.90999985    1.76999998
   20.53305435   80.02330017    4.90999985    1.76999998
   20.53361130   91.08599854    4.90999985    1.76999998
   20.53416634   97.23439789    4.90999985    1.76999998
   20.53472137   86.56739807    4.90999985    1.76999998
   20.53527641   88.74960327    4.90999985    1.76999998
   20.53583336   81.92489624    4.90999985    1.76999998
   20.53638840   90.32649994    4.90999985    1.76999998
   20.53694344   89.82330322    4.90999985    1.76999998
   20.53750038   91.78549957    4.90999985    1.76999998
   20.53805542   91.54889679    4.90999985    1.76999998
   20.53888893   96.51450348    4.90999985    1.76999998
   20.55722237   91.55429840    4.90999985    1.76999998
   20.55777740   94.23429871    4.90999985    1.76999998
   20.55833244   88.77729797    4.90999985    1.76999998
   20.55888748   98.24610138    4.90999985    1.76999998
   20.55944443   89.05149841    4.90999985    1.76999998
   20.55999947   99.61530304    4.90999985    1.76999998
   20.56055450   91.38960266    4.90999985    1.76999998
   20.56110954   92.59809875    4.90999985    1.76999998
   20.56166649   94.72959900    4.90999985    1.76999998
   20.56222153   91.25099945    4.90999985    1.76999998
   20.56277657   99.60379791    4.90999985    1.76999998
   20.56333351   96.71070099    4.90999985    1.76999998
   20.56388855   89.38619995    4.90999985    1.76999998
   20.56555557   95.57630157    4.90999985    1.76999998
   20.56611061  100.17900085    4.90999985    1.76999998
   20.56666756   93.55010223    4.90999985    1.76999998
   20.56722260   96.50730133    4.90999985    1.76999998
   20.56777954   97.78690338    4.90999985    1.76999998
   20.56833458   95.73660278    4.90999985    1.76999998
   20.56888962  106.52400208    4.90999985    1.76999998
   20.56944466   94.84030151    4.90999985    1.76999998
   20.57000160  101.00199890    4.90999985    1.76999998
   20.57055664   88.54869843    4.90999985    1.76999998
   20.57111168   95.58059692    4.90999985    1.76999998
   20.57166672   89.70890045    4.90999985    1.76999998
   20.57222366   97.37920380    4.90999985    1.76999998
   20.57277870   98.80840302    4.90999985    1.76999998
   20.57333374  101.65499878    4.90999985    1.76999998
   20.57389069   92.44889832    4.90999985    1.76999998
   20.57444572   94.06819916    4.90999985    1.76999998
   20.57500076   90.25910187    4.90999985    1.76999998
   20.57555580   95.13210297    4.90999985    1.76999998
   20.57611275  101.77899933    4.90999985    1.76999998
   20.57666779  100.60900116    4.90999985    1.76999998
   20.57722282   92.56439972    4.90999985    1.76999998
   20.57777786   98.21970367    4.90999985    1.76999998
   20.57833481   96.35970306    4.90999985    1.76999998
   20.57888985   96.04049683    4.90999985    1.76999998
   20.57944489  102.34500122    4.90999985    1.76999998
   20.58000183  101.04499817    4.90999985    1.76999998
   20.58055687   95.06529999    4.90999985    1.76999998
   20.58111191   89.91609955    4.90999985    1.76999998
   20.58166695   96.53790283    4.90999985    1.76999998
   20.58222389   95.10590363    4.90999985    1.76999998
   20.58277893   96.99849701    4.90999985    1.76999998
   20.58333397   91.81919861    4.90999985    1.76999998
   20.58388901   93.08409882    4.90999985    1.76999998
   20.58444595   94.62920380    4.90999985    1.76999998
   20.58500099   93.96869659    4.90999985    1.76999998
   20.58555603   92.75299835    4.90999985    1.76999998
   20.58611107   94.14260101    4.90999985    1.76999998
   20.58666801   96.61019897    4.90999985    1.76999998
   20.58750153   91.07959747    4.90999985    1.76999998
   20.58805656   97.64409637    4.90999985    1.76999998
   20.58861160   99.22039795    4.90999985    1.76999998
   20.58916664   98.78330231    4.90999985    1.76999998
   20.58972359   95.37960052    4.90999985    1.76999998
   20.59805679   91.43270111    0.00000000    0.00000000
   20.60583305   95.73380280    0.00000000    0.00000000
   20.60777855   95.73930359    0.00000000    0.00000000
   20.60805511  102.60600281    0.00000000    0.00000000
   20.60944557   99.41739655    0.00000000    0.00000000
   20.60972214   99.03910065    0.00000000    0.00000000
   20.61027908   93.11979675    0.00000000    0.00000000
   20.61083412   98.84010315    0.00000000    0.00000000
   20.61138916  101.12899780    0.00000000    0.00000000
   20.61194420   92.87470245    0.00000000    0.00000000
   20.61305618   92.94819641    0.00000000    0.00000000
   20.61361122   98.74919891    0.00000000    0.00000000
   20.61416626   87.36409760    0.00000000    0.00000000
   20.61472321   93.57279968    0.00000000    0.00000000
   20.61527824   92.18890381    0.00000000    0.00000000
   20.61583328   83.84829712    0.00000000    0.00000000
   20.61694527   93.25879669    0.00000000    0.00000000
   20.61750031   91.70739746    0.00000000    0.00000000
   20.61777878   94.19709778    0.00000000    0.00000000
   20.61833382   94.29560089    0.00000000    0.00000000
   20.61888885   99.06009674    0.00000000    0.00000000
   20.61944389  102.07299805    0.00000000    0.00000000
   20.62055588   87.33129883    0.00000000    0.00000000
   20.62111092   94.75720215    0.00000000    0.00000000
   20.62166595   93.19290161    0.00000000    0.00000000
   20.62222290   88.14040375    0.00000000    0.00000000
   20.62277794   95.75330353    0.00000000    0.00000000
   20.62333298   93.43730164    0.00000000    0.00000000
   20.62444496   98.30919647    0.00000000    0.00000000
   20.62500000   89.47119904    0.00000000    0.00000000
   20.62555504   94.70490265    0.00000000    0.00000000
   20.62583351   93.92489624    0.00000000    0.00000000
   20.62638855   87.91970062    0.00000000    0.00000000
   20.62694550   95.75460052    0.00000000    0.00000000
   20.62805557   97.41590118    0.00000000    0.00000000
   20.62861061   94.98509979    0.00000000    0.00000000
   20.62916756   97.83910370    0.00000000    0.00000000
   20.62972260   96.40820313    0.00000000    0.00000000
   20.63027763  107.07599640    0.00000000    0.00000000
   20.63083267   90.27010345    0.00000000    0.00000000
   20.63194466   93.54799652    0.00000000    0.00000000
   20.63249969   94.22339630    0.00000000    0.00000000
   20.63305473   95.71299744    0.00000000    0.00000000
   20.63361168  100.31800079    0.00000000    0.00000000
   20.63388824   94.14340210    0.00000000    0.00000000
   20.63444519   93.23290253    0.00000000    0.00000000
   20.63527679   92.26560211    4.90999985    1.76999998
   20.63583374   92.01570129    4.90999985    1.76999998
   20.63638878   89.20459747    4.90999985    1.76999998
   20.63694382   91.81939697    4.90999985    1.76999998
   20.63750076   93.01860046    4.90999985    1.76999998
   20.63805580   89.01090240    4.90999985    1.76999998
   20.63861084   87.32869720    4.90999985    1.76999998
   20.63916588   93.30000305    4.90999985    1.76999998
   20.63972282   90.91889954    4.90999985    1.76999998
   20.64111137   93.64080048    4.90999985    1.76999998
   20.64166641   93.34130096    4.90999985    1.76999998
   20.64222145   87.58239746    4.90999985    1.76999998
   20.64277840   94.93099976    4.90999985    1.76999998
   20.64333344   87.88539886    4.90999985    1.76999998
   20.64388847   88.29989624    4.90999985    1.76999998
   20.64444351   88.46530151    4.90999985    1.76999998
   20.64500046   91.09130096    4.90999985    1.76999998
   20.64611053   91.43520355    4.90999985    1.76999998
   20.64666748   89.51750183    4.90999985    1.76999998
   20.64722252   88.96700287    4.90999985    1.76999998
   20.64777756   96.28250122    4.90999985    1.76999998
   20.64833260   96.38600159    4.90999985    1.76999998
   20.64861107   95.11540222    4.90999985    1.76999998
   20.64916611   96.10710144    4.90999985    1.76999998
   20.64972115   98.61460114    4.90999985    1.76999998
   20.65027809   97.32610321    4.90999985    1.76999998
   20.65083313   93.65599823    4.90999985    1.76999998
   20.65138817   93.81259918    4.90999985    1.76999998
   20.65194321   99.69370270    4.90999985    1.76999998
   20.65250015   98.16590118    4.90999985    1.76999998
   20.65305519   90.75360107    4.90999985    1.76999998
   20.65361023   97.06420135    4.90999985    1.76999998
   20.65416718   99.49970245    4.90999985    1.76999998
   20.65472221   99.53780365    4.90999985    1.76999998
   20.65527725   95.47389984    4.90999985    1.76999998
   20.65583229   94.90619659    4.90999985    1.76999998
   20.65638924   97.93669891    4.90999985    1.76999998
   20.65694427   91.96929932    4.90999985    1.76999998
   20.65749931   96.12940216    4.90999985    1.76999998
   20.65777779   91.59220123    4.90999985    1.76999998
   20.65833282   92.92330170    4.90999985    1.76999998
   20.65888786   85.70500183    4.90999985    1.76999998
   20.65944481  100.66300201    4.90999985    1.76999998
   20.65999985   93.33719635    4.90999985    1.76999998
   20.66055489   95.31240082    4.90999985    1.76999998
   20.66110992   95.53340149    4.90999985    1.76999998
   20.66166687   94.53800201    4.90999985    1.76999998
   20.66222191   93.31159973    4.90999985    1.76999998
   20.66277695   95.55629730    4.90999985    1.76999998
   20.66333389   91.13749695    4.90999985    1.76999998
   20.66388893   90.78659821    4.90999985    1.76999998
   20.66444397   98.45290375    4.90999985    1.76999998
   20.66499901   93.19349670    4.90999985    1.76999998
   20.66555595   98.22380066    4.90999985    1.76999998
   20.66611099   93.15950012    4.90999985    1.76999998
   20.66666603   83.89510345    4.90999985    1.76999998
   20.66722107   87.62190247    4.90999985    1.76999998
   20.66777802   92.40589905    4.90999985    1.76999998
   20.66805458   88.32170105    4.90999985    1.76999998
   20.66860962   92.00830078    4.90999985    1.76999998
   20.66916656   91.29160309    4.90999985    1.76999998
   20.66972160   93.17259979    4.90999985    1.76999998
   20.67027664   94.35440063    4.90999985    1.76999998
   20.67083359   87.60449982    4.90999985    1.76999998
   20.67138863   92.99569702    4.90999985    1.76999998
   20.67194366  102.27400208    4.90999985    1.76999998
   20.67249870   99.60060120    4.90999985    1.76999998
   20.67305565   93.12989807    4.90999985    1.76999998
   20.67361069   92.71730042    4.90999985    1.76999998
   20.67416573   95.24440002    4.90999985    1.76999998
   20.67472076  103.75499725    4.90999985    1.76999998
   20.67527771  104.98799896    4.90999985    1.76999998
   20.67583275   94.94020081    4.90999985    1.76999998
   20.67638779  101.53399658    4.90999985    1.76999998
   20.67666626   95.71569824    4.90999985    1.76999998
   20.67722130   93.49810028    4.90999985    1.76999998
   20.67777634   99.46040344    4.90999985    1.76999998
   20.67833328  102.86399841    4.90999985    1.76999998
   20.67888832   92.23950195    4.90999985    1.76999998
   20.67944336   94.20929718    4.90999985    1.76999998
   20.68000031   92.05249786    4.90999985    1.76999998
   20.68055534  105.92400360    4.90999985    1.76999998
   20.68111038  104.63600159    4.90999985    1.76999998
   20.68166542   95.90509796    4.90999985    1.76999998
   20.68222237   94.87740326    4.90999985    1.76999998
   20.68277740   97.70970154    4.90999985    1.76999998
   20.68333244  102.14900208    4.90999985    1.76999998
   20.68388748   93.14299774    4.90999985    1.76999998
   20.68444443   94.05809784    4.90999985    1.76999998
   20.68472099  100.35700226    4.90999985    1.76999998
   20.68527603   95.62680054    4.90999985    1.76999998
   20.68583298   95.66149902    4.90999985    1.76999998
   20.68638802   97.33450317    4.90999985    1.76999998
   20.68694305  100.83000183    4.90999985    1.76999998
   20.68750000   92.99250031    4.90999985    1.76999998
   20.68805504  101.86000061    4.90999985    1.76999998
   20.68861008   95.59380341    4.90999985    1.76999998
   20.68916512   93.14450073    4.90999985    1.76999998
   20.68972206  100.51399994    4.90999985    1.76999998
   20.69027710   98.63539886    4.90999985    1.76999998
   20.69083214   98.15859985    4.90999985    1.76999998
   20.69138718  101.41100311    4.90999985    1.76999998
   20.69194412   90.14669800    4.90999985    1.76999998
   20.69249916   96.03540039    4.90999985    1.76999998
   20.69305420   99.73729706    4.90999985    1.76999998
   20.69361115   97.67700195    4.90999985    1.76999998
   20.69416618   97.12229919    4.90999985    1.76999998
   20.69444275   91.80020142    4.90999985    1.76999998
   20.69499969   94.04599762    4.90999985    1.76999998
   20.69555473  107.95099640    4.90999985    1.76999998
   20.69610977   97.19640350    4.90999985    1.76999998
   20.69666672   92.06430054    4.90999985    1.76999998
   20.69722176   96.99299622    4.90999985    1.76999998
   20.69777679   93.98079681    4.90999985    1.76999998
   20.69833183   87.13150024    4.90999985    1.76999998
   20.69888878   97.31510162    4.90999985    1.76999998
   20.69944382   98.07700348    4.90999985    1.76999998
   20.70000076   93.71659851    4.90999985    1.76999998
   20.70055580  105.81199646    4.90999985    1.76999998
   20.70111275   99.89700317    4.90999985    1.76999998
   20.70166779   97.69400024    4.90999985    1.76999998
   20.70222282  106.87100220    4.90999985    1.76999998
   20.70277786  107.17900085    4.90999985    1.76999998
   20.70305634  111.16300201    4.90999985    1.76999998
   20.70361137   89.85140228    4.90999985    1.76999998
   20.70416832   93.77700043    4.90999985    1.76999998
   20.70472336  110.18399811    4.90999985    1.76999998
   20.70527840   98.57730103    4.90999985    1.76999998
   20.70583344   98.31749725    4.90999985    1.76999998
   20.70639038   95.52179718    4.90999985    1.76999998
   20.70694542   97.10099792    4.90999985    1.76999998
   20.70750046   92.18270111    4.90999985    1.76999998
   20.70805550   99.24729919    4.90999985    1.76999998
   20.70861244   95.08439636    4.90999985    1.76999998
   20.70916748   96.13300323    4.90999985    1.76999998
   20.70972252   93.06790161    4.90999985    1.76999998
   20.71027946   90.36280060    4.90999985    1.76999998
   20.71083450   93.54329681    4.90999985    1.76999998
   20.71111107   93.51290131    4.90999985    1.76999998
   20.71166801   96.87329865    4.90999985    1.76999998
   20.71222305   97.12180328    4.90999985    1.76999998
   20.71277809   88.32420349    4.90999985    1.76999998
   20.71333504   92.03589630    4.90999985    1.76999998
   20.71389008   88.63009644    4.90999985    1.76999998
   20.71444511  102.95500183    4.90999985    1.76999998
   20.71500015   87.54019928    4.90999985    1.76999998
   20.71555710   95.80629730    4.90999985    1.76999998
   20.71611214   86.09300232    4.90999985    1.76999998
   20.71666718   94.27709961    4.90999985    1.76999998
   20.71722221   94.72100067    4.90999985    1.76999998
   20.71777916   96.88189697    4.90999985    1.76999998
   20.71833420   89.19200134    4.90999985    1.76999998
   20.71888924   90.60839844    4.90999985    1.76999998
   20.71944427   86.65000153    4.90999985    1.76999998
   20.71972275   93.54019928    4.90999985    1.76999998
   20.72027779   98.31400299    4.90999985    1.76999998
   20.72083473   83.00460052    4.90999985    1.76999998
   20.72138977   92.03869629    4.90999985    1.76999998
   20.72194481   91.92169952    4.90999985    1.76999998
   20.72249985   93.82499695    4.90999985    1.76999998
   20.72305679   92.53130341    4.90999985    1.76999998
   20.72361183  110.91400146    4.90999985    1.76999998
   20.72416687   94.35669708    4.90999985    1.76999998
   20.72472191   91.43509674    4.90999985    1.76999998
   20.72527885   90.83149719    4.90999985    1.76999998
   20.72583389   96.47460175    4.90999985    1.76999998
   20.72638893   96.44080353    4.90999985    1.76999998
   20.72666740   99.93730164    4.90999985    1.76999998
   20.72722244  102.47799683    4.90999985    1.76999998
   20.72777748   93.92739868    4.90999985    1.76999998
   20.72833443  107.22299957    4.90999985    1.76999998
   20.72888947   96.98660278    4.90999985    1.76999998
   20.72944450   88.78530121    4.90999985    1.76999998
   20.73000145   87.85769653    4.90999985    1.76999998
   20.73055649   97.15930176    4.90999985    1.76999998
   20.73111153   96.91210175    4.90999985    1.76999998
   20.73166656   97.81729889    4.90999985    1.76999998
   20.73222351  105.65100098    4.90999985    1.76999998
   20.73277855  106.65100098    4.90999985    1.76999998
   20.73333359  109.37599945    4.90999985    1.76999998
   20.73388863   98.38110352    4.90999985    1.76999998
   20.73416710  108.36799622    4.90999985    1.76999998
   20.73472214  112.47899628    4.90999985    1.76999998
   20.73527718   90.64880371    4.90999985    1.76999998
   20.73583412   95.46250153    4.90999985    1.76999998
   20.73638916   97.48670197    4.90999985    1.76999998
   20.73694420   96.77380371    4.90999985    1.76999998
   20.73750114   92.95339966    4.90999985    1.76999998
   20.73805618  102.47299957    4.90999985    1.76999998
   20.73861122   97.44170380    4.90999985    1.76999998
   20.73916626   95.49810028    4.90999985    1.76999998
   20.73972321  100.45200348    4.90999985    1.76999998
   20.74027824  104.29799652    4.90999985    1.76999998
   20.74083328  100.10700226    4.90999985    1.76999998
   20.74111176   90.57180023    4.90999985    1.76999998
   20.74166679   92.00450134    4.90999985    1.76999998
   20.74222183  101.46800232    4.90999985    1.76999998
   20.74277878   94.29429626    4.90999985    1.76999998
   20.74333382  104.13099670    4.90999985    1.76999998
   20.74388885   96.23960114    4.90999985    1.76999998
   20.74444389   92.75409698    4.90999985    1.76999998
   20.74500084   96.87480164    4.90999985    1.76999998
   20.74555588   94.79499817    4.90999985    1.76999998
   20.74611092  101.30500031    4.90999985    1.76999998
   20.74666786   99.69760132    4.90999985    1.76999998
   20.74722290  116.59500122    4.90999985    1.76999998
   20.74777794   96.03379822    4.90999985    1.76999998
   20.74833298  105.61399841    4.90999985    1.76999998
   20.74861145   88.33670044    4.90999985    1.76999998
   20.74916649  102.47799683    4.90999985    1.76999998
   20.74972153  104.06400299    4.90999985    1.76999998
   20.75027847   94.83139801    4.90999985    1.76999998
   20.75083351  110.39700317    4.90999985    1.76999998
   20.75138855  101.62899780    4.90999985    1.76999998
   20.75194359  102.52999878    4.90999985    1.76999998
   20.75250053  103.84100342    4.90999985    1.76999998
   20.75305557  105.73200226    4.90999985    1.76999998
   20.75361061  109.53199768    4.90999985    1.76999998
   20.75416756  120.13099670    4.90999985    1.76999998
   20.75472260  116.52300262    4.90999985    1.76999998
   20.75527763   98.86340332    4.90999985    1.76999998
   20.75555611  117.30999756    4.90999985    1.76999998
   20.75611115   98.90209961    4.90999985    1.76999998
   20.75666618   96.41339874    4.90999985    1.76999998
   20.75722313  107.28800201    4.90999985    1.76999998
   20.75777817  114.64199829    4.90999985    1.76999998
   20.75833321  124.74900055    4.90999985    1.76999998
   20.75888824   92.28579712    4.90999985    1.76999998
   20.75944519  119.83999634    4.90999985    1.76999998
   20.76000023  111.65899658    4.90999985    1.76999998
   20.76055527  116.95400238    4.90999985    1.76999998
   20.76111031   96.11250305    4.90999985    1.76999998
   20.76166725  106.37799835    4.90999985    1.76999998
   20.76222229  100.82099915    4.90999985    1.76999998
   20.76277733  102.17700195    4.90999985    1.76999998
   20.76333427   97.65969849    4.90999985    1.76999998
   20.76361084  103.42500305    4.90999985    1.76999998
   20.76416588  103.36100006    4.90999985    1.76999998
   20.76472282  102.30699921    4.90999985    1.76999998
   20.76527786  117.23899841    4.90999985    1.76999998
   20.76583290  103.90299988    4.90999985    1.76999998
   20.76638794  112.81800079    4.90999985    1.76999998
   20.76694489  110.86499786    4.90999985    1.76999998
   20.76749992  125.98200226    4.90999985    1.76999998
   20.76805496  104.41699982    4.90999985    1.76999998
   20.76861000  116.25700378    4.90999985    1.76999998
   20.76916695  113.96700287    4.90999985    1.76999998
   20.76972198  101.51899719    4.90999985    1.76999998
   20.77027702  107.30999756    4.90999985    1.76999998
   20.77083397   92.25140381    4.90999985    1.76999998
   20.77111053  107.38500214    4.90999985    1.76999998
   20.77166557  103.03399658    4.90999985    1.76999998
   20.77222252  106.22699738    4.90999985    1.76999998
   20.77277756  111.58399963    4.90999985    1.76999998
   20.77333260  122.16200256    4.90999985    1.76999998
   20.77388954   94.80770111    4.90999985    1.76999998
   20.77444458  121.86599731    4.90999985    1.76999998
   20.77499962  109.34100342    4.90999985    1.76999998
   20.77555466  124.32299805    4.90999985    1.76999998
   20.77611160  124.21199799    4.90999985    1.76999998
   20.77666664  115.60600281    4.90999985    1.76999998
   20.77722168  128.53100586    4.90999985    1.76999998
   20.77777672  124.95300293    4.90999985    1.76999998
   20.77833366  112.40699768    4.90999985    1.76999998
   20.77861023  115.67299652    4.90999985    1.76999998
   20.77916718  120.08599854    4.90999985    1.76999998
   20.77972221  116.93099976    4.90999985    1.76999998
   20.78027725  110.95500183    4.90999985    1.76999998
   20.78083229  118.84300232    4.90999985    1.76999998
   20.78138924  121.44799805    4.90999985    1.76999998
   20.78194427   98.88680267    4.90999985    1.76999998
   20.78249931  115.25299835    4.90999985    1.76999998
   20.78305435  107.76499939    4.90999985    1.76999998
   20.78361130  113.04499817    4.90999985    1.76999998
   20.78416634  112.16100311    4.90999985    1.76999998
   20.78472137  101.68399811    4.90999985    1.76999998
   20.78527641   99.83059692    4.90999985    1.76999998
   20.78583336  101.69799805    4.90999985    1.76999998
   20.78638840  102.13200378    4.90999985    1.76999998
   20.78694344  116.03299713    4.90999985    1.76999998
   20.78750038  108.34600067    4.90999985    1.76999998
   20.78805542   95.88880157    4.90999985    1.76999998
   20.78833199  102.85800171    4.90999985    1.76999998
   20.78888893   91.86319733    4.90999985    1.76999998
   20.78944397   92.88269806    4.90999985    1.76999998
   20.78999901  100.44400024    4.90999985    1.76999998
   20.79055595  106.49600220    4.90999985    1.76999998
   20.79111099  117.30200195    4.90999985    1.76999998
   20.79166603  119.39199829    4.90999985    1.76999998
   20.79222107  129.00900269    4.90999985    1.76999998
   20.79277802  122.63500214    4.90999985    1.76999998
   20.79333305  126.03600311    4.90999985    1.76999998
   20.79388809  121.45600128    4.90999985    1.76999998
   20.79444313  127.56400299    4.90999985    1.76999998
   20.79500008  106.62799835    4.90999985    1.76999998
   20.79527664   82.12670135    4.90999985    1.76999998
   20.79583359   96.81529999    4.90999985    1.76999998
   20.79638863  109.15100098    4.90999985    1.76999998
   20.79694366   87.86519623    4.90999985    1.76999998
   20.79777718   89.07839966    4.90999985    1.76999998
   20.79833221   85.32330322    4.90999985    1.76999998
   20.79916573  101.01899719    4.90999985    1.76999998
   20.79972076  109.55100250    4.90999985    1.76999998
   20.80027771  110.68399811    4.90999985    1.76999998
   20.80083275  116.80100250    4.90999985    1.76999998
   20.80138779  112.18800354    4.90999985    1.76999998
   20.80166626  126.60700226    4.90999985    1.76999998
   20.80222130  128.70700073    4.90999985    1.76999998
   20.80277634  114.19699860    4.90999985    1.76999998
   20.80333328  123.79599762    4.90999985    1.76999998
   20.80388832  122.66000366    4.90999985    1.76999998
   20.80444336  112.86399841    4.90999985    1.76999998
   20.80499840  108.72699738    4.90999985    1.76999998
   20.80555534  124.23699951    4.90999985    1.76999998
   20.80611038  121.54599762    4.90999985    1.76999998
   20.80666542  131.83900452    4.90999985    1.76999998
   20.80722237  145.45100403    4.90999985    1.76999998
   20.80777740  145.33900452    4.90999985    1.76999998
   20.80833244  121.75099945    4.90999985    1.76999998
   20.80888748  120.81400299    4.90999985    1.76999998
   20.80916595  135.55099487    4.90999985    1.76999998
   20.80972099  114.49700165    4.90999985    1.76999998
   20.81027794  143.37199402    4.90999985    1.76999998
   20.81083298  136.12100220    4.90999985    1.76999998
   20.81138802  124.92199707    4.90999985    1.76999998
   20.81194305  127.26799774    4.90999985    1.76999998
   20.81250000  119.41899872    4.90999985    1.76999998
   20.81305504  115.39099884    4.90999985    1.76999998
   20.81361008   -1.00000000    4.90999985    1.76999998
   20.81416512   -1.00000000    4.90999985    1.76999998
   20.81472206   -1.00000000    4.90999985    1.76999998
   20.81527710   -1.00000000    4.90999985    1.76999998
   20.81555557   -1.00000000    4.90999985    1.76999998
   20.81611061   -1.00000000    4.90999985    1.76999998
   20.81666756   -1.00000000    4.90999985    1.76999998
   20.81722260   -1.00000000    4.90999985    1.76999998
   20.81777954   -1.00000000    4.90999985    1.76999998
   20.81861115   -1.00000000    4.90999985    1.76999998
   20.81944466   -1.00000000    4.90999985    1.76999998
   20.82000160   -1.00000000    4.90999985    1.76999998
   20.82055664   -1.00000000    4.90999985    1.76999998
   20.82111168   -1.00000000    4.90999985    1.76999998
   20.82250023   -1.00000000    4.90999985    1.76999998
