    HOUR (UT)   FLARE FACTOR    SKY TESTER    SUN TESTER
   11.98222160   -1.00000000   -1.00000000   -1.00000000
   12.06527805  115.00900269    0.00000000    0.00000000
   12.06861115  108.51699829    0.00000000    0.00000000
   12.07166672  117.36000061    0.00000000    0.00000000
   12.07499981  118.98600006    0.00000000    0.00000000
   12.07833290  124.59100342    0.00000000    0.00000000
   12.08138847  118.28199768    0.00000000    0.00000000
   12.08555508  118.28199768    0.00000000    0.00000000
   12.08972168  114.50099945    0.00000000    0.00000000
   12.09305477  116.93099976    0.00000000    0.00000000
   12.09638882  120.46099854    0.00000000    0.00000000
   12.09861088  115.95099640    0.00000000    0.00000000
   12.10027790  116.03800201    0.00000000    0.00000000
   12.10333347  116.59300232    0.00000000    0.00000000
   12.10666752  127.63300323    0.00000000    0.00000000
   12.11000061  116.00700378    0.00000000    0.00000000
   12.11305618  108.38400269    0.00000000    0.00000000
   12.11638927  111.93900299    0.00000000    0.00000000
   12.11944485  110.34799957    0.00000000    0.00000000
   12.12277794  113.01100159    0.00000000    0.00000000
   12.12833309  113.01100159    0.00000000    0.00000000
   12.13249969  109.92500305    0.00000000    0.00000000
   12.13583279  112.98300171    0.00000000    0.00000000
   12.13916683  106.94400024    0.00000000    0.00000000
   12.14222240  110.60399628    0.00000000    0.00000000
   12.14555550  109.55599976    0.00000000    0.00000000
   12.14861107  114.48999786    0.00000000    0.00000000
   12.15194416  109.51799774    0.00000000    0.00000000
   12.15527725  114.51100159    0.00000000    0.00000000
   12.15833282  111.20099640    0.00000000    0.00000000
   12.16166592  110.20200348    0.00000000    0.00000000
   12.16499996  109.80699921    0.00000000    0.00000000
   12.16555500  108.78600311    0.00000000    0.00000000
   12.17138958  108.78600311    0.00000000    0.00000000
   12.17555618  118.76300049    0.00000000    0.00000000
   12.17861176  102.78099823    0.00000000    0.00000000
   12.18194485  105.46199799    0.00000000    0.00000000
   12.18527794  108.66500092    0.00000000    0.00000000
   12.18833351  117.97899628    0.00000000    0.00000000
   12.19166660  109.82499695    0.00000000    0.00000000
   12.19499969  114.48300171    0.00000000    0.00000000
   12.19805527  111.61900330    0.00000000    0.00000000
   12.19888878  110.76399994    0.00000000    0.00000000
   12.20166683  121.08899689    0.00000000    0.00000000
   12.20499992  110.23699951    0.00000000    0.00000000
   12.20805550   99.74349976    0.00000000    0.00000000
   12.21416664   99.74349976    0.00000000    0.00000000
   12.21833324  107.26999664    0.00000000    0.00000000
   12.22138882  108.60800171    0.00000000    0.00000000
   12.22472191  108.48100281    0.00000000    0.00000000
   12.22805500  114.26200104    0.00000000    0.00000000
   12.23111057  111.33300018    0.00000000    0.00000000
   12.23222160  112.72799683    0.00000000    0.00000000
   12.23472214  115.93699646    0.00000000    0.00000000
   12.23805618  112.99099731    0.00000000    0.00000000
   12.24111176  117.41999817    0.00000000    0.00000000
   12.24444485  117.62000275    0.00000000    0.00000000
   12.24777794  117.50000000    4.90999985    2.89000010
   12.25083351  114.93800354    4.90999985    2.89000010
   12.25694466  114.93800354    4.90999985    2.89000010
   12.26111126   99.30660248    4.90999985    2.89000010
   12.26444435  109.45700073    4.90999985    2.89000010
   12.26555538  112.73999786    4.90999985    2.89000010
   12.26805496  115.92900085    4.90999985    2.89000010
   12.27138901  104.88999939    4.90999985    2.89000010
   12.27444458  113.66200256    4.90999985    2.89000010
   12.27777767  110.02700043    4.90999985    2.89000010
   12.28111076  110.53600311    4.90999985    2.89000010
   12.28416729  114.49199677    4.90999985    2.89000010
   12.28750038  113.84600067    4.90999985    2.89000010
   12.29083347  106.22899628    4.90999985    2.89000010
   12.29388905  105.64800262    4.90999985    2.89000010
   12.29972267  105.64800262    4.90999985    2.89000010
   12.30388927  109.73699951    4.90999985    2.89000010
   12.30722237  108.63800049    4.90999985    2.89000010
   12.31055546  111.16200256    4.90999985    2.89000010
   12.31361103  110.32199860    4.90999985    2.89000010
   12.31694412  111.36499786    4.90999985    2.89000010
   12.31999969  118.94499969    4.90999985    2.89000010
   12.32333374  117.93599701    4.90999985    2.89000010
   12.32666683  112.84600067    4.90999985    2.89000010
   12.32972240  108.54900360    4.90999985    2.89000010
   12.33222198  110.18800354    4.90999985    2.89000010
   12.33333302  104.66200256    4.90999985    2.89000010
   12.33666611  104.97899628    4.90999985    2.89000010
   12.34277725  104.97899628    4.90999985    2.89000010
   12.34694386  101.27500153    4.90999985    2.89000010
   12.35000038  103.59799957    4.90999985    2.89000010
   12.35333347  107.12999725    4.90999985    2.89000010
   12.35638905  108.96099854    4.90999985    2.89000010
   12.35972214  106.66500092    4.90999985    2.89000010
   12.36305618  104.87500000    4.90999985    2.89000010
   12.36555576  108.86599731    4.90999985    2.89000010
   12.36666679  105.67600250    4.90999985    2.89000010
   12.36999989  107.90499878    4.90999985    2.89000010
   12.37333393  109.77100372    4.90999985    2.89000010
   12.37638855  105.03500366    4.90999985    2.89000010
   12.37972260  111.26100159    4.90999985    2.89000010
   12.38555527  111.26100159    4.90999985    2.89000010
   12.38972187  107.65000153    4.90999985    2.89000010
   12.39277744  107.32900238    4.90999985    2.89000010
   12.39611053  110.59400177    4.90999985    2.89000010
   12.39888859  109.91899872    4.90999985    2.89000010
   12.39972210  103.25299835    4.90999985    2.89000010
   12.40305519  114.64700317    4.90999985    2.89000010
   12.40638828  110.59999847    4.90999985    2.89000010
   12.40944386  114.13200378    4.90999985    2.89000010
   12.41277695  109.95099640    4.90999985    2.89000010
   12.41583252  116.16400146    4.90999985    2.89000010
   12.41916656  108.63800049    4.90999985    2.89000010
   12.42250061  111.87300110    4.90999985    2.89000010
   12.42833328  111.87300110    4.90999985    2.89000010
   12.43249989  114.13999939    4.90999985    2.89000010
   12.43583298  108.12999725    4.90999985    2.89000010
   12.43888855  123.00700378    4.90999985    2.89000010
   12.44222260  106.61799622    4.90999985    2.89000010
   12.44555569  115.97000122    4.90999985    2.89000010
   12.44861126  111.83899689    4.90999985    2.89000010
   12.45194435  110.09500122    4.90999985    2.89000010
   12.45527744   99.13800049    4.90999985    2.89000010
   12.45833302  101.96800232    4.90999985    2.89000010
   12.46166611  106.24299622    4.90999985    2.89000010
   12.46472168  106.59899902    4.90999985    2.89000010
   12.46555519  110.27200317    4.90999985    2.89000010
   12.47138882  110.27200317    4.90999985    2.89000010
   12.47555542  112.69100189    4.90999985    2.89000010
   12.47888851  115.47399902    4.90999985    2.89000010
   12.48194408  111.49199677    4.90999985    2.89000010
   12.48527813  112.38099670    4.90999985    2.89000010
   12.48861122  108.06800079    4.90999985    2.89000010
   12.49166679  109.13300323    4.90999985    2.89000010
   12.49499989  109.41400146    4.90999985    2.89000010
   12.49833393  108.17400360    4.90999985    2.89000010
   12.49888897  105.15299988    4.90999985    2.89000010
   12.50166702  108.67299652    4.90999985    2.89000010
   12.50500011  102.50000000    4.90999985    2.89000010
   12.50833321  113.26799774    4.90999985    2.89000010
   12.51416683  113.26799774    4.90999985    2.89000010
   12.51833344  109.72299957    4.90999985    2.89000010
   12.52138901  110.14700317    4.90999985    2.89000010
   12.52472210  104.59600067    4.90999985    2.89000010
   12.52777767  104.77700043    4.90999985    2.89000010
   12.53111076  106.37999725    4.90999985    2.89000010
   12.53222179  110.66699982    4.90999985    2.89000010
   12.53472233  107.12599945    4.90999985    2.89000010
   12.53805637  109.50000000    4.90999985    2.89000010
   12.54138947  113.39399719    4.90999985    2.89000010
   12.54444504  106.83000183    4.90999985    2.89000010
   12.54777813  112.77200317    4.90999985    2.89000010
   12.55083370  108.01699829    4.90999985    2.89000010
   12.55694485  108.01699829    4.90999985    2.89000010
   12.56111145  108.41100311    4.90999985    2.89000010
   12.56416702  111.04399872    4.90999985    2.89000010
   12.56555557  116.09200287    4.90999985    2.89000010
   12.56777763  115.62500000    4.90999985    2.89000010
   12.57111073  101.65899658    4.90999985    2.89000010
   12.57444477  108.74700165    4.90999985    2.89000010
   12.57750034  112.76699829    4.90999985    2.89000010
   12.58083344  104.81600189    4.90999985    2.89000010
   12.58388901  105.18299866    4.90999985    2.89000010
   12.58722210  106.58899689    4.90999985    2.89000010
   12.59055519  111.18599701    4.90999985    2.89000010
   12.59361076  106.54900360    4.90999985    2.89000010
   12.59972191  106.54900360    4.90999985    2.89000010
   12.60388947   99.70909882    4.90999985    2.89000010
   12.60722256  111.19999695    4.90999985    2.89000010
   12.61027813  106.92299652    4.90999985    2.89000010
   12.61361122  105.53199768    4.90999985    2.89000010
   12.61694431  110.90399933    4.90999985    2.89000010
   12.61999989  114.12699890    4.90999985    2.89000010
   12.62333393  109.45300293    4.90999985    2.89000010
   12.62638855  110.39600372    4.90999985    2.89000010
   12.62972260  109.74700165    4.90999985    2.89000010
   12.63222218  104.99800110    4.90999985    2.89000010
   12.63333321  109.67199707    4.90999985    2.89000010
   12.63666630  113.10500336    4.90999985    2.89000010
   12.64249992  113.10500336    4.90999985    2.89000010
   12.64666653  103.47000122    4.90999985    2.89000010
   12.64999962  107.09899902    4.90999985    2.89000010
   12.65333271  108.78099823    4.90999985    2.89000010
   12.65638828  110.39900208    4.90999985    2.89000010
   12.65972137  104.03299713    4.90999985    2.89000010
   12.66277695  106.54299927    4.90999985    2.89000010
   12.66555500  110.20400238    4.90999985    2.89000010
   12.66638851  105.68800354    4.90999985    2.89000010
   12.66972256  106.01599884    4.90999985    2.89000010
   12.67305565  102.20600128    4.90999985    2.89000010
   12.67611122  110.50199890    4.90999985    2.89000010
   12.67944431  105.22699738    4.90999985    2.89000010
   12.68555546  105.22699738    4.90999985    2.89000010
   12.68972206  114.80799866    4.90999985    2.89000010
   12.69277763  114.64199829    4.90999985    2.89000010
   12.69611073  127.70800018    4.90999985    2.89000010
   12.69888878  118.72100067    4.90999985    2.89000010
   12.69972229  117.16600037    4.90999985    2.89000010
   12.70305538  124.04000092    4.90999985    2.89000010
   12.70638847  116.84799957    4.90999985    2.89000010
   12.70944405  117.46800232    4.90999985    2.89000010
   12.71277714  113.19400024    4.90999985    2.89000010
   12.71611118  121.83399963    4.90999985    2.89000010
   12.71916580  116.27899933    4.90999985    2.89000010
   12.72249985  110.45600128    4.90999985    2.89000010
   12.72833252  110.45600128    4.90999985    2.89000010
   12.73249912  106.84700012    4.90999985    2.89000010
   12.73555565  117.58699799    4.90999985    2.89000010
   12.73888874  109.02700043    4.90999985    2.89000010
   12.74222279  115.19000244    4.90999985    2.89000010
   12.74527836  120.41500092    4.90999985    2.89000010
   12.74861145  124.61399841    4.90999985    2.89000010
   12.75166702  118.26300049    4.90999985    2.89000010
   12.75500011  127.08000183    4.90999985    2.89000010
   12.75833321  138.71499634    4.90999985    2.89000010
   12.76138878  121.63999939    4.90999985    2.89000010
   12.76472187  135.07699585    4.90999985    2.89000010
   12.76555538  123.52100372    4.90999985    2.89000010
   12.77111053  123.52100372    4.90999985    2.89000010
   12.77527714  122.27600098    4.90999985    2.89000010
   12.77861118  122.54399872    4.90999985    2.89000010
   12.78166676  119.81600189    4.90999985    2.89000010
   12.78500080  120.25599670    4.90999985    2.89000010
   12.78833389  126.04000092    4.90999985    2.89000010
   12.79138947  123.16999817    4.90999985    2.89000010
   12.79472256  125.65200043    4.90999985    2.89000010
   12.79805565  124.76599884    4.90999985    2.89000010
   12.79888916  118.08999634    4.90999985    2.89000010
   12.80138874  120.42800140    4.90999985    2.89000010
   12.80472279  119.63999939    4.90999985    2.89000010
   12.80805588  123.32199860    4.90999985    2.89000010
   12.81388950  123.32199860    4.90999985    2.89000010
   12.81805515  120.00399780    4.90999985    2.89000010
   12.82138920  119.85700226    4.90999985    2.89000010
   12.82472229  124.49700165    4.90999985    2.89000010
   12.82777786  121.06400299    4.90999985    2.89000010
   12.83111095  124.13200378    4.90999985    2.89000010
   12.83222198  125.23899841    4.90999985    2.89000010
   12.83444405  134.45199585    4.90999985    2.89000010
   12.83777714  118.89299774    4.90999985    2.89000010
   12.84111118  128.26400757    4.90999985    2.89000010
   12.84416676  126.80899811    4.90999985    2.89000010
   12.84749985  124.82099915    4.90999985    2.89000010
   12.85083389  119.13300323    4.90999985    2.89000010
   12.85694504  119.13300323    4.90999985    2.89000010
   12.86111164  125.10399628    4.90999985    2.89000010
   12.86416721  114.39600372    4.90999985    2.89000010
   12.86555576  123.16899872    4.90999985    2.89000010
   12.86777782  127.39900208    4.90999985    2.89000010
   12.87111092  138.52200317    4.90999985    2.89000010
   12.87444496  124.27400208    4.90999985    2.89000010
   12.87750053  120.84600067    4.90999985    2.89000010
   12.88083363  139.78100586    4.90999985    2.89000010
   12.88416672  128.38999939    4.90999985    2.89000010
   12.88722229  133.44299316    4.90999985    2.89000010
   12.89055538  129.58799744    4.90999985    2.89000010
   12.89361095  124.43599701    4.90999985    2.89000010
   12.89972210  124.43599701    4.90999985    2.89000010
   12.90388870  130.17399597    4.90999985    2.89000010
   12.90694427  134.97300720    4.90999985    2.89000010
   12.91027737  132.43600464    4.90999985    2.89000010
   12.91361046  142.56799316    4.90999985    2.89000010
   12.91666698  133.36999512    4.90999985    2.89000010
   12.92000008  133.48500061    4.90999985    2.89000010
   12.92305565  125.62799835    4.90999985    2.89000010
   12.92638874  129.91799927    4.90999985    2.89000010
   12.92972279  144.27400208    4.90999985    2.89000010
   12.93222237  129.34399414    4.90999985    2.89000010
   12.93305588  130.90499878    4.90999985    2.89000010
   12.93638897  139.18899536    4.90999985    2.89000010
   12.94250011  139.18899536    4.90999985    2.89000010
   12.94666672  222.39700317    4.90999985    2.89000010
   12.94999981  127.15599823    4.90999985    2.89000010
   12.95305538  137.24099731    4.90999985    2.89000010
   12.95638847  136.52600098    4.90999985    2.89000010
   12.95972157  131.86700439    4.90999985    2.89000010
   12.96277714  144.61099243    4.90999985    2.89000010
   12.96555519  129.08999634    4.90999985    2.89000010
   12.96666622  147.45100403    4.90999985    2.89000010
   12.96972179  137.19400024    4.90999985    2.89000010
   12.97305489  139.70799255    4.90999985    2.89000010
   12.97638798  136.09899902    4.90999985    2.89000010
   12.97944355  135.89799500    4.90999985    2.89000010
   12.98527813  135.89799500    4.90999985    2.89000010
   12.98944473  147.40100098    4.90999985    2.89000010
   12.99277782  138.89999390    4.90999985    2.89000010
   12.99583340  141.95599365    4.90999985    2.89000010
   12.99888897  155.83099365    4.90999985    2.89000010
   12.99972248  158.44000244    4.90999985    2.89000010
   13.00277805  137.89300537    4.90999985    2.89000010
   13.00611115  144.60000610    4.90999985    2.89000010
   13.00916672  141.67799377    4.90999985    2.89000010
   13.01249981  146.83299255    4.90999985    2.89000010
   13.01583290  150.19000244    4.90999985    2.89000010
   13.01888847  142.04800415    4.90999985    2.89000010
   13.02222157  141.33799744    4.90999985    2.89000010
   13.02833271  141.33799744    4.90999985    2.89000010
   13.03222179  147.67799377    4.90999985    2.89000010
   13.03555584  152.95300293    4.90999985    2.89000010
   13.03888893  147.47999573    4.90999985    2.89000010
   13.04194450  150.20199585    4.90999985    2.89000010
   13.04527855  156.42100525    4.90999985    2.89000010
   13.04861164  133.27799988    4.90999985    2.89000010
   13.05166721  171.08099365    4.90999985    2.89000010
   13.05500031  168.72799683    4.90999985    2.89000010
   13.05805588  146.30700684    4.90999985    2.89000010
   13.06138897  142.47099304    4.90999985    2.89000010
   13.06472206  140.58000183    4.90999985    2.89000010
   13.06555557  158.49299622    4.90999985    2.89000010
   13.08611107  158.49299622    4.90999985    2.89000010
   13.09027767  133.41799927    4.90999985    2.89000010
   13.09361076  138.66200256    4.90999985    2.89000010
   13.09694386  132.82699585    4.90999985    2.89000010
   13.09888840  132.66299438    4.90999985    2.89000010
   13.10055637  132.63000488    4.90999985    2.89000010
   13.10361195  164.08799744    4.90999985    2.89000010
   13.10694504  148.46400452    4.90999985    2.89000010
   13.11027813  152.11399841    4.90999985    2.89000010
   13.11333370  122.86499786    4.90999985    2.89000010
   13.11666679  125.30200195    4.90999985    2.89000010
   13.11972237  129.90299988    4.90999985    2.89000010
   13.12305546  145.94900513    4.90999985    2.89000010
   13.12888908  145.94900513    4.90999985    2.89000010
   13.13305569  131.85099792    4.90999985    2.89000010
   13.13638878  135.95799255    4.90999985    2.89000010
   13.13944435  139.60000610    4.90999985    2.89000010
   13.14277744  132.67999268    4.90999985    2.89000010
   13.14611053  125.08000183    4.90999985    2.89000010
   13.14916611  140.27600098    4.90999985    2.89000010
   13.15249920  137.68800354    4.90999985    2.89000010
   13.15583324  131.19999695    4.90999985    2.89000010
   13.15888882  135.59599304    4.90999985    2.89000010
   13.16222191  129.22300720    4.90999985    2.89000010
   13.16527748  139.11799622    4.90999985    2.89000010
   13.16583252  141.17100525    4.90999985    2.89000010
   13.17166710  141.17100525    4.90999985    2.89000010
   13.17583370  149.72300720    4.90999985    2.89000010
   13.17916679  132.95199585    4.90999985    2.89000010
   13.18249989  142.57000732    4.90999985    2.89000010
   13.18555546  136.31399536    4.90999985    2.89000010
   13.18888855  121.01899719    4.90999985    2.89000010
   13.19194412  131.31300354    4.90999985    2.89000010
   13.19527817  138.27600098    4.90999985    2.89000010
   13.19861126  135.84199524    4.90999985    2.89000010
   13.19916630  147.84100342    4.90999985    2.89000010
   13.20222187  130.65699768    4.90999985    2.89000010
   13.20555496  128.01699829    4.90999985    2.89000010
   13.20861053  144.25399780    4.90999985    2.89000010
   13.21472168  144.25399780    4.90999985    2.89000010
   13.21861076  144.18299866    4.90999985    2.89000010
   13.22194386  142.75900269    4.90999985    2.89000010
   13.22527695  146.65400696    4.90999985    2.89000010
   13.22833252  137.63099670    4.90999985    2.89000010
   13.23166656  147.52699280    4.90999985    2.89000010
   13.23249912  133.28300476    4.90999985    2.89000010
   13.23527813  133.89199829    4.90999985    2.89000010
   13.23861122  138.77299500    4.90999985    2.89000010
   13.24166679  143.25300598    4.90999985    2.89000010
   13.24499989  127.23999786    4.90999985    2.89000010
   13.24805546  142.16000366    4.90999985    2.89000010
   13.25138855  134.41099548    4.90999985    2.89000010
   13.25749969  134.41099548    4.90999985    2.89000010
   13.26166630  138.06700134    4.90999985    2.89000010
   13.26472187  131.98500061    4.90999985    2.89000010
   13.26583290  123.38500214    4.90999985    2.89000010
   13.26833344  134.00300598    4.90999985    2.89000010
   13.27166653  131.14399719    4.90999985    2.89000010
   13.27472210  124.96399689    4.90999985    2.89000010
   13.27805519  131.16799927    4.90999985    2.89000010
   13.28111076  135.24000549    4.90999985    2.89000010
   13.28444481  127.26599884    4.90999985    2.89000010
   13.28777790  131.22700500    4.90999985    2.89000010
   13.29083347  131.11099243    4.90999985    2.89000010
   13.29416752  132.91299438    4.90999985    2.89000010
   13.30027771  132.91299438    4.90999985    2.89000010
   13.30444431  132.36799622    4.90999985    2.89000010
   13.30777836  133.89700317    4.90999985    2.89000010
   13.31083393  132.94299316    4.90999985    2.89000010
   13.31416702  132.45899963    4.90999985    2.89000010
   13.31722260  131.46000671    4.90999985    2.89000010
   13.32055569  138.67799377    4.90999985    2.89000010
   13.32388878  129.00599670    4.90999985    2.89000010
   13.32694435  129.02699280    4.90999985    2.89000010
   13.33027744  131.04699707    4.90999985    2.89000010
   13.33249950  127.16999817    4.90999985    2.89000010
   13.33388901  130.16600037    4.90999985    2.89000010
   13.33722210  135.03900146    4.90999985    2.89000010
   13.34305477  135.03900146    4.90999985    2.89000010
   13.34722233  147.93699646    4.90999985    2.89000010
   13.35055637  130.40100098    4.90999985    2.89000010
   13.35361195  133.72799683    4.90999985    2.89000010
   13.35694504  133.56399536    4.90999985    2.89000010
   13.36027813  151.74899292    4.90999985    2.89000010
   13.36333370  138.50999451    4.90999985    2.89000010
   13.36583328  130.80200195    4.90999985    2.89000010
   13.36694431  139.78999329    4.90999985    2.89000010
   13.37027836  133.52299500    4.90999985    2.89000010
   13.37333393  136.35600281    4.90999985    2.89000010
   13.37666702  135.39999390    4.90999985    2.89000010
   13.37972260  141.60099792    4.90999985    2.89000010
   13.38611126  141.60099792    4.90999985    2.89000010
   13.39027786  144.22700500    4.90999985    2.89000010
   13.39333344  142.00700378    4.90999985    2.89000010
   13.39666653  142.02099609    4.90999985    2.89000010
   13.39916611  172.40100098    4.90999985    2.89000010
   13.40027714  152.66299438    4.90999985    2.89000010
   13.40361118  157.55099487    4.90999985    2.89000010
   13.40666676  158.53300476    4.90999985    2.89000010
   13.40999985  155.14500427    4.90999985    2.89000010
   13.41305542  160.50000000    4.90999985    2.89000010
   13.41638851  189.54800415    4.90999985    2.89000010
   13.41972256  146.72200012    4.90999985    2.89000010
   13.42277813  168.67399597    4.90999985    2.89000010
   13.42888927  168.67399597    4.90999985    2.89000010
   13.43305588  150.78500366    4.90999985    2.89000010
   13.43638897  163.32499695    4.90999985    2.89000010
   13.43944454  170.91999817    4.90999985    2.89000010
   13.44277763  158.70799255    4.90999985    2.89000010
   13.44583321  155.16499329    4.90999985    2.89000010
   13.44916630  133.85499573    4.90999985    2.89000010
   13.45222187  151.76800537    4.90999985    2.89000010
   13.45555496  134.04400635    4.90999985    2.89000010
   13.45888901  144.15899658    4.90999985    2.89000010
   13.46194458  132.16200256    4.90999985    2.89000010
   13.46527767  128.36799622    4.90999985    2.89000010
   13.46611118  132.77299500    4.90999985    2.89000010
   13.47166634  132.77299500    4.90999985    2.89000010
   13.47583294  120.84600067    4.90999985    2.89000010
   13.47916603  124.54299927    4.90999985    2.89000010
   13.48222160  129.29899597    4.90999985    2.89000010
   13.48555565  131.76800537    4.90999985    2.89000010
   13.48861122  119.03299713    4.90999985    2.89000010
   13.49194431  148.81599426    4.90999985    2.89000010
   13.49527836  140.50300598    4.90999985    2.89000010
   13.49833393  134.13099670    4.90999985    2.89000010
   13.49916649  131.30999756    4.90999985    2.89000010
   13.50194454  134.72399902    4.90999985    2.89000010
   13.50527763  145.42100525    4.90999985    2.89000010
   13.50833321  130.29600525    4.90999985    2.89000010
   13.51444435  130.29600525    4.90999985    2.89000010
   13.51861095  130.88499451    4.90999985    2.89000010
   13.52194405  131.26400757    4.90999985    2.89000010
   13.52527714  115.62300110    4.90999985    2.89000010
   13.52861118  141.45399475    4.90999985    2.89000010
   13.53166676  136.99699402    4.90999985    2.89000010
   13.53249931  133.93800354    4.90999985    2.89000010
   13.53527832  139.72099304    4.90999985    2.89000010
   13.53861141  129.86300659    4.90999985    2.89000010
   13.54166698  132.51499939    4.90999985    2.89000010
   13.54500008  131.45799255    4.90999985    2.89000010
   13.54805565  127.58899689    4.90999985    2.89000010
   13.55138874  132.11000061    4.90999985    2.89000010
   13.55749989  132.11000061    4.90999985    2.89000010
   13.56166649  125.63500214    4.90999985    2.89000010
   13.56472206  127.19300079    4.90999985    2.89000010
   13.56611156  130.92500305    4.90999985    2.89000010
   13.56833363  118.12000275    4.90999985    2.89000010
   13.57166672  125.91799927    4.90999985    2.89000010
   13.57499981  125.91100311    4.90999985    2.89000010
   13.57805538  135.28700256    4.90999985    2.89000010
   13.58138847  124.08000183    4.90999985    2.89000010
   13.58444405  129.57800293    4.90999985    2.89000010
   13.58777714  133.43699646    4.90999985    2.89000010
   13.59083271  129.56500244    4.90999985    2.89000010
   13.59416676  133.18200684    4.90999985    2.89000010
   13.60027790  133.18200684    4.90999985    2.89000010
   13.60444450  136.20100403    4.90999985    2.89000010
   13.60750008  136.12800598    4.90999985    2.89000010
   13.61083412  118.83699799    4.90999985    2.89000010
   13.61416721  121.31800079    4.90999985    2.89000010
   13.61722279  124.60399628    4.90999985    2.89000010
   13.62055588  118.81999969    4.90999985    2.89000010
   13.62361145  130.07899475    4.90999985    2.89000010
   13.62694454  124.54799652    4.90999985    2.89000010
   13.63000011  127.33899689    4.90999985    2.89000010
   13.63277817  123.27899933    4.90999985    2.89000010
   13.63361073  122.97399902    4.90999985    2.89000010
   13.63694477  126.82199860    4.90999985    2.89000010
   13.64305496  126.82199860    4.90999985    2.89000010
   13.64722252  125.47899628    4.90999985    2.89000010
   13.65055561  130.15299988    4.90999985    2.89000010
   13.65361118  127.88400269    4.90999985    2.89000010
   13.65694427  129.03799438    4.90999985    2.89000010
   13.65999985  130.31599426    4.90999985    2.89000010
   13.66333294  133.35499573    4.90999985    2.89000010
   13.66611099  137.40400696    4.90999985    2.89000010
   13.66694450  134.21299744    4.90999985    2.89000010
   13.67027855  132.08799744    4.90999985    2.89000010
   13.67333412  129.52600098    4.90999985    2.89000010
   13.67666721  130.77299500    4.90999985    2.89000010
   13.68000031  132.41099548    4.90999985    2.89000010
   13.68583298  132.41099548    4.90999985    2.89000010
   13.69000053  127.30999756    4.90999985    2.89000010
   13.69333363  129.64199829    4.90999985    2.89000010
   13.69638920  126.41000366    4.90999985    2.89000010
   13.69944477  131.21099854    4.90999985    2.89000010
   13.69999981  132.05599976    4.90999985    2.89000010
   13.70333290  119.68800354    4.90999985    2.89000010
   13.70666695  127.25700378    4.90999985    2.89000010
   13.70972157  116.45999908    4.90999985    2.89000010
   13.71305561  122.29799652    4.90999985    2.89000010
   13.71611118  123.22100067    4.90999985    2.89000010
   13.71944427  124.14700317    4.90999985    2.89000010
   13.72277737  132.32400513    4.90999985    2.89000010
   13.72888851  132.32400513    4.90999985    2.89000010
   13.73305511  128.73300171    4.90999985    2.89000010
   13.73611164  135.44799805    4.90999985    2.89000010
   13.73944473  130.54299927    4.90999985    2.89000010
   13.74250031  126.04299927    4.90999985    2.89000010
   13.74583340  127.45200348    4.90999985    2.89000010
   13.74916649  127.27300262    4.90999985    2.89000010
   13.75222206  130.05999756    4.90999985    2.89000010
   13.75555515  132.27999878    4.90999985    2.89000010
   13.75861073  127.20800018    4.90999985    2.89000010
   13.76194477  127.99099731    4.90999985    2.89000010
   13.76527786  124.61000061    4.90999985    2.89000010
   13.76611137  123.95500183    4.90999985    2.89000010
   13.77166653  123.95500183    4.90999985    2.89000010
   13.77583313  130.15499878    4.90999985    2.89000010
   13.77888870  122.51200104    4.90999985    2.89000010
   13.78222179  122.47899628    4.90999985    2.89000010
   13.78555584  117.70600128    4.90999985    2.89000010
   13.78861141  127.71099854    4.90999985    2.89000010
   13.79194450  131.78399658    4.90999985    2.89000010
   13.79500008  127.86900330    4.90999985    2.89000010
   13.79833412  122.07800293    4.90999985    2.89000010
   13.79944515  122.75900269    4.90999985    2.89000010
   13.80194473  132.34500122    4.90999985    2.89000010
   13.80527782  131.95599365    4.90999985    2.89000010
   13.80833340  129.81900024    4.90999985    2.89000010
   13.81444454  129.81900024    4.90999985    2.89000010
   13.81861115  129.17999268    4.90999985    2.89000010
   13.82194424  146.49299622    4.90999985    2.89000010
   13.82499981  141.28599548    4.90999985    2.89000010
   13.82833290  139.82099915    4.90999985    2.89000010
   13.83138847  142.13600159    4.90999985    2.89000010
   13.83277798  141.97200012    4.90999985    2.89000010
   13.83500004  140.75700378    4.90999985    2.89000010
   13.83833313  140.87199402    4.90999985    2.89000010
   13.84138870  143.98899841    4.90999985    2.89000010
   13.84472179  133.93800354    4.90999985    2.89000010
   13.84805489  139.04899597    4.90999985    2.89000010
   13.85111141  117.22799683    4.90999985    2.89000010
   13.85722256  117.22799683    4.90999985    2.89000010
   13.86138916  134.95100403    4.90999985    2.89000010
   13.86472225  129.90400696    4.90999985    2.89000010
   13.86611176  119.03500366    4.90999985    2.89000010
   13.86833382  130.87800598    4.90999985    2.89000010
   13.87166691  127.90399933    4.90999985    2.89000010
   13.87472248  134.37699890    4.90999985    2.89000010
   13.87805557  132.39599609    4.90999985    2.89000010
   13.88138866  126.26999664    4.90999985    2.89000010
   13.88444424  140.37300110    4.90999985    2.89000010
   13.88777733  112.30100250    4.90999985    2.89000010
   13.89083290  128.93600464    4.90999985    2.89000010
   13.89416695  115.51899719    4.90999985    2.89000010
   13.90027714  115.51899719    4.90999985    2.89000010
   13.90444374  126.88800049    4.90999985    2.89000010
   13.90749931  129.53100586    4.90999985    2.89000010
   13.91083336  125.49400330    4.90999985    2.89000010
   13.91388893  126.19799805    4.90999985    2.89000010
   13.91722298  127.99800110    4.90999985    2.89000010
   13.92027855  139.53300476    4.90999985    2.89000010
   13.92361164  143.68200684    4.90999985    2.89000010
   13.92694473  127.48200226    4.90999985    2.89000010
   13.93000031  142.49499512    4.90999985    2.89000010
   13.93277836  129.51800537    4.90999985    2.89000010
   13.93361092  123.42199707    4.90999985    2.89000010
   13.93694496  140.48300171    4.90999985    2.89000010
   13.94305515  140.48300171    4.90999985    2.89000010
   13.94722271  133.90100098    4.90999985    2.89000010
   13.95027733  128.95100403    4.90999985    2.89000010
   13.95361137  134.93699646    4.90999985    2.89000010
   13.95694447  120.23899841    4.90999985    2.89000010
   13.96000004  126.59799957    4.90999985    2.89000010
   13.96333313  113.52700043    4.90999985    2.89000010
   13.96611118  122.65499878    4.90999985    2.89000010
   13.96666622  121.37300110    4.90999985    2.89000010
   13.96999931  119.67500305    4.90999985    2.89000010
   13.97333336  118.54000092    4.90999985    2.89000010
   13.97638798  127.77899933    4.90999985    2.89000010
   13.97972202  120.20700073    4.90999985    2.89000010
   13.98583317  120.20700073    4.90999985    2.89000010
   13.99000072  119.86599731    4.90999985    2.89000010
   13.99333382  123.57399750    4.90999985    2.89000010
   13.99638939  123.15299988    4.90999985    2.89000010
   13.99944496  124.10900116    4.90999985    2.89000010
   14.00000000  121.01999664    4.90999985    2.89000010
   14.00333309  118.95600128    4.90999985    2.89000010
   14.00666714  111.44899750    4.90999985    2.89000010
   14.00972176  121.09400177    4.90999985    2.89000010
   14.01305580  113.14099884    4.90999985    2.89000010
   14.01611137  126.04499817    4.90999985    2.89000010
   14.01944447  134.37100220    4.90999985    2.89000010
   14.02277756  122.06800079    4.90999985    2.89000010
   14.02861118  122.06800079    4.90999985    2.89000010
   14.03277779  121.54199982    4.90999985    2.89000010
   14.03611183  119.63999939    4.90999985    2.89000010
   14.03944492  124.86299896    4.90999985    2.89000010
   14.04250050  120.20300293    4.90999985    2.89000010
   14.04583359  116.42900085    4.90999985    2.89000010
   14.04916668  110.52300262    4.90999985    2.89000010
   14.05222225  114.48699951    4.90999985    2.89000010
   14.05555534  113.12999725    4.90999985    2.89000010
   14.05861092  110.38400269    4.90999985    2.89000010
   14.06194496  111.33100128    4.90999985    2.89000010
   14.06527805  124.66699982    4.90999985    2.89000010
   14.06611156  115.44300079    4.90999985    2.89000010
   14.07166672  115.44300079    4.90999985    2.89000010
   14.07583332  111.69499969    4.90999985    2.89000010
   14.07888889  112.25700378    4.90999985    2.89000010
   14.08222198  124.18099976    4.90999985    2.89000010
   14.09972191  128.96400452    4.90999985    2.89000010
   14.10222244  124.09400177    4.90999985    2.89000010
   14.10555553  119.83100128    4.90999985    2.89000010
   14.10861111  114.98200226    4.90999985    2.89000010
   14.11472225  114.98200226    4.90999985    2.89000010
   14.11888885  123.66300201    4.90999985    2.89000010
   14.12194443  118.33999634    4.90999985    2.89000010
   14.12527752  110.54299927    4.90999985    2.89000010
   14.12861156  115.01200104    4.90999985    2.89000010
   14.13166714  109.58899689    4.90999985    2.89000010
   14.13305569  112.81700134    4.90999985    2.89000010
   14.13555527  129.31599426    4.90999985    2.89000010
   14.13861084  124.70200348    4.90999985    2.89000010
   14.14194393  126.68399811    4.90999985    2.89000010
   14.14499950  116.21900177    4.90999985    2.89000010
   14.14833355  122.75099945    4.90999985    2.89000010
   14.15166664  120.87400055    4.90999985    2.89000010
   14.15749931  120.87400055    4.90999985    2.89000010
   14.16166592  120.59600067    4.90999985    2.89000010
   14.16472149  122.78299713    4.90999985    2.89000010
   14.16638851  115.80699921    4.90999985    2.89000010
   14.16861153  119.78800201    4.90999985    2.89000010
   14.17166710  120.25299835    4.90999985    2.89000010
   14.17500019  128.19700623    4.90999985    2.89000010
   14.17805576  119.56900024    4.90999985    2.89000010
   14.18138885  123.86900330    4.90999985    2.89000010
   14.18472195  117.21900177    4.90999985    2.89000010
   14.18777752  125.40200043    4.90999985    2.89000010
   14.19111156  120.18900299    4.90999985    2.89000010
   14.19444466  117.91699982    4.90999985    2.89000010
   14.20027733  117.91699982    4.90999985    2.89000010
   14.20444393  128.21499634    4.90999985    2.89000010
   14.20777798  121.54000092    4.90999985    2.89000010
   14.21083355  124.67500305    4.90999985    2.89000010
   14.21416664  126.38200378    4.90999985    2.89000010
   14.21722221  125.58499908    4.90999985    2.89000010
   14.22055531  124.33699799    4.90999985    2.89000010
   14.22388840  119.84999847    4.90999985    2.89000010
   14.22694397  128.29299927    4.90999985    2.89000010
   14.23027706  127.05000305    4.90999985    2.89000010
   14.23305511  127.93699646    4.90999985    2.89000010
   14.23416710  131.79400635    4.90999985    2.89000010
   14.23722267  121.75700378    4.90999985    2.89000010
   14.24305534  121.75700378    4.90999985    2.89000010
   14.24722290  129.64599609    4.90999985    2.89000010
   14.25055599  123.77300262    4.90999985    2.89000010
   14.25361156  127.36599731    4.90999985    2.89000010
   14.25694466  128.16299438    4.90999985    2.89000010
   14.26027775  132.41000366    4.90999985    2.89000010
   14.26333332  133.70100403    4.90999985    2.89000010
   14.26638889  131.43099976    4.90999985    2.89000010
   14.26722240  131.36399841    4.90999985    2.89000010
   14.27027798  124.47499847    4.90999985    2.89000010
   14.27361107  128.73199463    4.90999985    2.89000010
   14.27666664  126.91200256    4.90999985    2.89000010
   14.27999973  121.67500305    4.90999985    2.89000010
   14.28611183  121.67500305    4.90999985    2.89000010
   14.29000092  123.97200012    4.90999985    2.89000010
   14.29333401  114.09899902    4.90999985    2.89000010
   14.29666710  118.04499817    4.90999985    2.89000010
   14.29972267  122.72100067    4.90999985    2.89000010
   14.30027771  130.07499695    4.90999985    2.89000010
   14.30333328  119.02100372    4.90999985    2.89000010
   14.30666733  123.83000183    4.90999985    2.89000010
   14.30972195  129.43499756    4.90999985    2.89000010
   14.31305599  134.66999817    4.90999985    2.89000010
   14.31638908  129.49000549    4.90999985    2.89000010
   14.31944466  126.52100372    4.90999985    2.89000010
   14.32277775  127.05100250    4.90999985    2.89000010
   14.32888889  127.05100250    4.90999985    2.89000010
   14.33305550  137.54600525    4.90999985    2.89000010
   14.33361053  128.04899597    4.90999985    2.89000010
   14.33666611  126.03099823    4.90999985    2.89000010
   14.34000015  129.75999451    4.90999985    2.89000010
   14.34305477  130.68099976    4.90999985    2.89000010
   14.34638882  128.37899780    4.90999985    2.89000010
   14.34972191  141.67100525    4.90999985    2.89000010
   14.35277843  125.72499847    4.90999985    2.89000010
   14.35611153  131.38600159    4.90999985    2.89000010
   14.35944462  126.90699768    4.90999985    2.89000010
   14.36250019  126.06600189    4.90999985    2.89000010
   14.36583328  127.28800201    4.90999985    2.89000010
   14.36638927  127.10199738    4.90999985    2.89000010
   14.37166691  127.10199738    4.90999985    2.89000010
   14.37583351  126.98899841    4.90999985    2.89000010
   14.37916660  129.48300171    4.90999985    2.89000010
   14.38222218  132.38699341    4.90999985    2.89000010
   14.38555527  129.44999695    4.90999985    2.89000010
   14.38861084  127.74299622    4.90999985    2.89000010
   14.39194393  133.47300720    4.90999985    2.89000010
   14.39527798  127.52600098    4.90999985    2.89000010
   14.39833355  129.99200439    4.90999985    2.89000010
   14.39972210  136.60600281    4.90999985    2.89000010
   14.40222168  131.92500305    4.90999985    2.89000010
   14.40555477  129.09399414    4.90999985    2.89000010
   14.40888882  125.15799713    4.90999985    2.89000010
   14.41444397  125.15799713    4.90999985    2.89000010
   14.41861153  121.52899933    4.90999985    2.89000010
   14.42194462  136.56300354    4.90999985    2.89000010
   14.42500019  123.15699768    4.90999985    2.89000010
   14.42833328  127.20800018    4.90999985    2.89000010
   14.43166733  129.93099976    4.90999985    2.89000010
   14.43305588  131.69799805    4.90999985    2.89000010
   14.43527794  128.22200012    4.90999985    2.89000010
   14.43833351  130.71099854    4.90999985    2.89000010
   14.44166660  123.33899689    4.90999985    2.89000010
   14.44499969  127.26499939    4.90999985    2.89000010
   14.44805527  120.19300079    4.90999985    2.89000010
   14.45138836  127.88999939    4.90999985    2.89000010
   14.45722198  127.88999939    4.90999985    2.89000010
   14.46138859  131.30799866    4.90999985    2.89000010
   14.46472168  131.68099976    4.90999985    2.89000010
   14.46638870  122.98300171    4.90999985    2.89000010
   14.46833324  132.04100037    4.90999985    2.89000010
   14.47138882  128.70599365    4.90999985    2.89000010
   14.47472191  131.28500366    4.90999985    2.89000010
   14.47777748  137.67500305    4.90999985    2.89000010
   14.48111057  132.90600586    4.90999985    2.89000010
   14.48444462  131.10800171    4.90999985    2.89000010
   14.48750019  141.47099304    4.90999985    2.89000010
   14.49083328  136.06500244    4.90999985    2.89000010
   14.49416733  134.32299805    4.90999985    2.89000010
   14.50027752  134.32299805    4.90999985    2.89000010
   14.50444412  128.79299927    4.90999985    2.89000010
   14.50749969  129.43299866    4.90999985    2.89000010
   14.51083374  142.54200745    4.90999985    2.89000010
   14.51416683  128.34399414    4.90999985    2.89000010
   14.51722240  130.57400513    4.90999985    2.89000010
   14.52055550  129.18899536    4.90999985    2.89000010
   14.52388859  124.72799683    4.90999985    2.89000010
   14.52694416  126.61299896    4.90999985    2.89000010
   14.53027725  128.73899841    4.90999985    2.89000010
   14.53305531  132.58599854    4.90999985    2.89000010
   14.53388977  128.61999512    4.90999985    2.89000010
   14.53694534  133.37399292    4.90999985    2.89000010
   14.54305553  133.37399292    4.90999985    2.89000010
   14.54722309  133.49600220    4.90999985    2.89000010
   14.55027771  131.79699707    4.90999985    2.89000010
   14.55361176  125.80000305    4.90999985    2.89000010
   14.55694485  125.92500305    4.90999985    2.89000010
   14.56000042  125.24700165    4.90999985    2.89000010
   14.56333351  123.91500092    4.90999985    2.89000010
   14.56638908  139.02799988    4.90999985    2.89000010
   14.56694412  139.55700684    4.90999985    2.89000010
   14.56999969  125.51899719    4.90999985    2.89000010
   14.57333374  128.12500000    4.90999985    2.89000010
   14.57638836  137.09800720    4.90999985    2.89000010
   14.57972240  130.30999756    4.90999985    2.89000010
   14.58583260  130.30999756    4.90999985    2.89000010
   14.59000015  130.21699524    4.90999985    2.89000010
   14.59333324  136.56900024    4.90999985    2.89000010
   14.59638882  134.49699402    4.90999985    2.89000010
   14.59972191  121.82599640    4.90999985    2.89000010
   14.60027790  130.61500549    4.90999985    2.89000010
   14.60333347  133.43899536    4.90999985    2.89000010
   14.60666752  129.14500427    4.90999985    2.89000010
   14.61000061  130.87300110    4.90999985    2.89000010
   14.61305618  127.15299988    4.90999985    2.89000010
   14.61638927  126.64800262    4.90999985    2.89000010
   14.61944485  132.32200623    4.90999985    2.89000010
   14.62277794  128.71899414    4.90999985    2.89000010
   14.62888908  128.71899414    4.90999985    2.89000010
   14.63277817  125.22499847    4.90999985    2.89000010
   14.63333321  129.94900513    4.90999985    2.89000010
   14.63666630  128.50199890    4.90999985    2.89000010
   14.64000034  129.12600708    4.90999985    2.89000010
   14.64305496  127.25299835    4.90999985    2.89000010
   14.64638901  130.45199585    4.90999985    2.89000010
   14.64944458  129.75199890    4.90999985    2.89000010
   14.65277767  124.69400024    4.90999985    2.89000010
   14.65611076  124.71299744    4.90999985    2.89000010
   14.65916634  131.00999451    4.90999985    2.89000010
   14.66249943  129.82800293    4.90999985    2.89000010
   14.66583252  128.38999939    4.90999985    2.89000010
   14.66666698  125.81400299    4.90999985    2.89000010
   14.67166710  125.81400299    4.90999985    2.89000010
   14.67583370  123.56900024    4.90999985    2.89000010
   14.67888927  128.26600647    4.90999985    2.89000010
   14.68222237  126.30999756    4.90999985    2.89000010
   14.68555546  126.06199646    4.90999985    2.89000010
   14.68888855  127.65899658    4.90999985    2.89000010
   14.69194412  127.38200378    4.90999985    2.89000010
   14.69527817  137.61300659    4.90999985    2.89000010
   14.69861126  125.26200104    4.90999985    2.89000010
   14.69999981  126.01100159    4.90999985    2.89000010
   14.70222187  134.88000488    4.90999985    2.89000010
   14.70555496  134.50000000    4.90999985    2.89000010
   14.70861053  141.91200256    4.90999985    2.89000010
   14.71444416  141.91200256    4.90999985    2.89000010
   14.71861076  132.27400208    4.90999985    2.89000010
   14.72166634  125.06400299    4.90999985    2.89000010
   14.72499943  133.92799377    4.90999985    2.89000010
   14.72833252  131.07699585    4.90999985    2.89000010
   14.73138809  137.37800598    4.90999985    2.89000010
   14.73333359  126.09899902    4.90999985    2.89000010
   14.73500061  131.86700439    4.90999985    2.89000010
   14.73833370  128.75799561    4.90999985    2.89000010
   14.74138927  122.91899872    4.90999985    2.89000010
   14.74472237  125.34500122    4.90999985    2.89000010
   14.74777794  126.97399902    4.90999985    2.89000010
   14.75111103  130.73300171    4.90999985    2.89000010
   14.75722218  130.73300171    4.90999985    2.89000010
   14.76138878  127.91799927    4.90999985    2.89000010
   14.76472187  125.24400330    4.90999985    2.89000010
   14.76666641  125.91699982    4.90999985    2.89000010
   14.76833344  124.06500244    4.90999985    2.89000010
   14.77166653  122.08899689    4.90999985    2.89000010
   14.77472210  124.88600159    4.90999985    2.89000010
   14.77805519  126.61000061    4.90999985    2.89000010
   14.78138828  118.83899689    4.90999985    2.89000010
   14.78444481  122.37500000    4.90999985    2.89000010
   14.78777790  114.37200165    4.90999985    2.89000010
   14.79111195  121.63400269    4.90999985    2.89000010
   14.79416752  117.43000031    4.90999985    2.89000010
   14.80027771  117.43000031    4.90999985    2.89000010
   14.80416679  123.44799805    4.90999985    2.89000010
   14.80749989  129.08900452    4.90999985    2.89000010
   14.81083393  133.26800537    4.90999985    2.89000010
   14.81388950  121.80000305    4.90999985    2.89000010
   14.81722260  136.19700623    4.90999985    2.89000010
   14.82055569  131.42399597    4.90999985    2.89000010
   14.82361126  128.96299744    4.90999985    2.89000010
   14.82694435  121.99900055    4.90999985    2.89000010
   14.82999992  135.05700684    4.90999985    2.89000010
   14.83333302  131.19200134    4.90999985    2.89000010
   14.83388901  133.20500183    4.90999985    2.89000010
   14.83722210  122.92800140    4.90999985    2.89000010
   14.84305477  122.92800140    4.90999985    2.89000010
   14.84722233  130.29699707    4.90999985    2.89000010
   15.00583363   -1.00000000   -1.00000000   -1.00000000
   15.20527744   -1.00000000   -1.00000000   -1.00000000
   15.31805515   -1.00000000   -1.00000000   -1.00000000
   15.39527798  128.19599915    4.90999985    2.89000010
   15.39861107  134.42599487    4.90999985    2.89000010
   15.40166664  132.07699585    4.90999985    2.89000010
   15.40499973  128.93400574    4.90999985    2.89000010
   15.40833282  130.88400269    4.90999985    2.89000010
   15.41138840  128.87600708    4.90999985    2.89000010
   15.41555500  128.87600708    4.90999985    2.89000010
   15.41972256  132.82099915    4.90999985    2.89000010
   15.42305565  127.36900330    4.90999985    2.89000010
   15.42611122  123.96199799    4.90999985    2.89000010
   15.42861176  135.78100586    4.90999985    2.89000010
   15.42972279  131.14199829    4.90999985    2.89000010
   15.43305588  125.95899963    4.90999985    2.89000010
   15.43638897  124.13099670    4.90999985    2.89000010
   15.43944454  112.35600281    4.90999985    2.89000010
   15.44277763  121.77500153    4.90999985    2.89000010
   15.44583321  117.06900024    4.90999985    2.89000010
   15.44916630  117.23799896    4.90999985    2.89000010
   15.45249939  121.11599731    4.90999985    2.89000010
   15.45833302  121.11599731    4.90999985    2.89000010
   15.46249962  127.88200378    4.90999985    2.89000010
   15.46583271  126.06700134    4.90999985    2.89000010
   15.46888828  129.58599854    4.90999985    2.89000010
   15.47222137  124.31900024    4.90999985    2.89000010
   15.47555542  130.24600220    4.90999985    2.89000010
   15.47888851  128.40100098    4.90999985    2.89000010
   15.48222160  128.94099426    4.90999985    2.89000010
   15.48527813  137.76199341    4.90999985    2.89000010
   15.48861122  134.55000305    4.90999985    2.89000010
   15.49166679  134.94999695    4.90999985    2.89000010
   15.49499989  129.45799255    4.90999985    2.89000010
   15.49555588  125.10299683    4.90999985    2.89000010
   15.50138855  125.10299683    4.90999985    2.89000010
   15.50527763  116.95500183    4.90999985    2.89000010
   15.50861073  130.11199951    4.90999985    2.89000010
   15.51194477  133.79899597    4.90999985    2.89000010
   15.51500034  131.33599854    4.90999985    2.89000010
   15.51833344  127.04399872    4.90999985    2.89000010
   15.52166653  126.55000305    4.90999985    2.89000010
   15.52472210  132.97399902    4.90999985    2.89000010
   15.52805519  116.84600067    4.90999985    2.89000010
   15.52888870  118.33100128    4.90999985    2.89000010
   15.53166676  130.86399841    4.90999985    2.89000010
   15.53472233  123.69999695    4.90999985    2.89000010
   15.53805637  117.12799835    4.90999985    2.89000010
   15.54416752  117.12799835    4.90999985    2.89000010
   15.54833412  127.81400299    4.90999985    2.89000010
   15.55138874  130.18299866    4.90999985    2.89000010
   15.55472279  120.54499817    4.90999985    2.89000010
   15.55805588  117.87500000    4.90999985    2.89000010
   15.56111145  118.81800079    4.90999985    2.89000010
   15.56222248  126.40699768    4.90999985    2.89000010
   15.56500053  125.14499664    4.90999985    2.89000010
   15.56805515  129.08299255    4.90999985    2.89000010
   15.57138920  127.70099640    4.90999985    2.89000010
   15.57472229  130.83799744    4.90999985    2.89000010
   15.57777786  127.90200043    4.90999985    2.89000010
   15.58111095  136.90899658    4.90999985    2.89000010
   15.58694458  136.90899658    4.90999985    2.89000010
   15.59111118  128.36399841    4.90999985    2.89000010
   15.59444427  135.75599670    4.90999985    2.89000010
   15.59555531  124.27500153    4.90999985    2.89000010
   15.59805489  119.10199738    4.90999985    2.89000010
   15.60111141  129.93200684    4.90999985    2.89000010
   15.60444450  119.44499969    4.90999985    2.89000010
   15.60777855  120.83300018    4.90999985    2.89000010
   15.61083412  120.71499634    4.90999985    2.89000010
   15.61416721  125.01999664    4.90999985    2.89000010
   15.61750031  122.34300232    4.90999985    2.89000010
   15.62055588  130.75700378    4.90999985    2.89000010
   15.62388897  126.91000366    4.90999985    2.89000010
   15.62972260  126.91000366    4.90999985    2.89000010
   15.63388920  129.55599976    4.90999985    2.89000010
   15.63722229  128.58900452    4.90999985    2.89000010
   15.64027786  122.34300232    4.90999985    2.89000010
   15.64361095  133.21499634    4.90999985    2.89000010
   15.64694405  124.78099823    4.90999985    2.89000010
   15.64999962  131.10200500    4.90999985    2.89000010
   15.65333271  133.38699341    4.90999985    2.89000010
   15.65666676  138.01499939    4.90999985    2.89000010
   15.65972137  130.64900208    4.90999985    2.89000010
   15.66222191  146.10800171    4.90999985    2.89000010
   15.66361046  128.80299377    4.90999985    2.89000010
   15.66666698  139.54299927    4.90999985    2.89000010
   15.67277813  139.54299927    4.90999985    2.89000010
   15.67666721  128.55499268    4.90999985    2.89000010
   15.68000031  121.98600006    4.90999985    2.89000010
   15.68333340  108.61199951    4.90999985    2.89000010
   15.68638897  114.20600128    4.90999985    2.89000010
   15.68972206  121.48799896    4.90999985    2.89000010
   15.69305515  118.95800018    4.90999985    2.89000010
   15.69555569  119.80500031    4.90999985    2.89000010
   15.69666672  118.06099701    4.90999985    2.89000010
   15.69972229  126.97299957    4.90999985    2.89000010
   15.70305538  116.91500092    4.90999985    2.89000010
   15.70638847  133.41600037    4.90999985    2.89000010
   15.70944405  135.84899902    4.90999985    2.89000010
   15.71555519  135.84899902    4.90999985    2.89000010
   15.71972179  132.63600159    4.90999985    2.89000010
   15.72277737  118.09300232    4.90999985    2.89000010
   15.72611046  143.47500610    4.90999985    2.89000010
   15.72888851  127.53800201    4.90999985    2.89000010
   15.72972202  128.66099548    4.90999985    2.89000010
   15.73277760  116.72299957    4.90999985    2.89000010
   15.73611164  125.33799744    4.90999985    2.89000010
   15.73944473  129.02099609    4.90999985    2.89000010
   15.74250031  134.47900391    4.90999985    2.89000010
   15.74583340  122.13600159    4.90999985    2.89000010
   15.74888897  136.48300171    4.90999985    2.89000010
   15.75222206  123.12500000    4.90999985    2.89000010
   15.75833321  123.12500000    4.90999985    2.89000010
   15.76249981  118.38899994    4.90999985    2.89000010
   15.76583290  137.04699707    4.90999985    2.89000010
   15.76888847  129.06599426    4.90999985    2.89000010
   15.77222157  127.97399902    4.90999985    2.89000010
   15.77527714  134.12600708    4.90999985    2.89000010
   15.77861118  131.02000427    4.90999985    2.89000010
   15.78194427  136.24099731    4.90999985    2.89000010
   15.78500080  136.50000000    4.90999985    2.89000010
   15.78833389  134.79100037    4.90999985    2.89000010
   15.79166698  124.11900330    4.90999985    2.89000010
   15.79472256  137.41400146    4.90999985    2.89000010
   15.79555607  150.08999634    4.90999985    2.89000010
   15.80111122  150.08999634    4.90999985    2.89000010
   15.80527782  125.28800201    4.90999985    2.89000010
   15.80861092  132.01100159    4.90999985    2.89000010
   15.81166649  126.91100311    4.90999985    2.89000010
   15.81500053  124.36199951    4.90999985    2.89000010
   15.81833363  124.48699951    4.90999985    2.89000010
   15.82138920  135.77999878    4.90999985    2.89000010
   15.82472229  123.41600037    4.90999985    2.89000010
   15.82805538  126.74099731    4.90999985    2.89000010
   15.82888889  124.71399689    4.90999985    2.89000010
   15.83166695  136.96299744    4.90999985    2.89000010
   15.83472157  139.56700134    4.90999985    2.89000010
   15.83805561  128.84700012    4.90999985    2.89000010
   15.84416676  128.84700012    4.90999985    2.89000010
   15.84805489  129.06900024    4.90999985    2.89000010
   15.85138893  118.91000366    4.90999985    2.89000010
   15.85472298  135.74099731    4.90999985    2.89000010
   15.85777855  132.46800232    4.90999985    2.89000010
   15.86111164  135.23599243    4.90999985    2.89000010
   15.86222267  130.72799683    4.90999985    2.89000010
   15.86472225  135.40899658    4.90999985    2.89000010
   15.86777782  131.90499878    4.90999985    2.89000010
   15.87111092  137.54499817    4.90999985    2.89000010
   15.87444496  140.39199829    4.90999985    2.89000010
   15.87750053  142.48899841    4.90999985    2.89000010
   15.88083363  131.85099792    4.90999985    2.89000010
   15.88694477  131.85099792    4.90999985    2.89000010
   15.89111137  130.94799805    4.90999985    2.89000010
   15.89416695  131.01100159    4.90999985    2.89000010
   15.89555550  129.92599487    4.90999985    2.89000010
   15.89805508  146.54100037    4.90999985    2.89000010
   15.90138817  134.63099670    4.90999985    2.89000010
   15.90444374  133.63000488    4.90999985    2.89000010
   15.90777779  135.97900391    4.90999985    2.89000010
   15.91083336  123.56600189    4.90999985    2.89000010
   15.91416645  126.00399780    4.90999985    2.89000010
   15.91750050  137.02799988    4.90999985    2.89000010
   15.92055607  124.74400330    4.90999985    2.89000010
   15.92388916  129.92700195    4.90999985    2.89000010
   15.92972279  129.92700195    4.90999985    2.89000010
   15.93388939  132.11900330    4.90999985    2.89000010
   15.93722248  137.95700073    4.90999985    2.89000010
   15.94027805  131.81199646    4.90999985    2.89000010
   15.94361115  129.58900452    4.90999985    2.89000010
   15.94666672  131.03199768    4.90999985    2.89000010
   15.94999981  127.85500336    4.90999985    2.89000010
   15.95333290  132.31799316    4.90999985    2.89000010
   15.95638847  129.40899658    4.90999985    2.89000010
   15.95972157  136.04699707    4.90999985    2.89000010
   15.96222210  126.31800079    4.90999985    2.89000010
   15.96333313  133.70500183    4.90999985    2.89000010
   15.96666622  129.91299438    4.90999985    2.89000010
   15.97249985  129.91299438    4.90999985    2.89000010
   15.97666645  126.39399719    4.90999985    2.89000010
   15.97999954  121.22799683    4.90999985    2.89000010
   15.98305511  126.05100250    4.90999985    2.89000010
   15.98638916  122.42900085    4.90999985    2.89000010
   15.98972225  131.26400757    4.90999985    2.89000010
   15.99277782  133.17399597    4.90999985    2.89000010
   15.99555588  124.15599823    4.90999985    2.89000010
   15.99666691  130.64199829    4.90999985    2.89000010
   16.00000000  117.76999664    4.90999985    2.89000010
   16.00305557  124.65100098    4.90999985    2.89000010
   16.00638962  130.02799988    4.90999985    2.89000010
   16.00944519  127.02400208    4.90999985    2.89000010
   16.01555634  127.02400208    4.90999985    2.89000010
   16.01972198  119.48000336    4.90999985    2.89000010
   16.02277756  117.97799683    4.90999985    2.89000010
   16.02611160  121.91899872    4.90999985    2.89000010
   16.02888870  123.43000031    4.90999985    2.89000010
   16.02972221  130.82800293    4.90999985    2.89000010
   16.03305435  126.36299896    4.90999985    2.89000010
   16.03610992  126.60299683    4.90999985    2.89000010
   16.03944397  125.04799652    4.90999985    2.89000010
   16.04249954  129.60699463    4.90999985    2.89000010
   16.04583359  132.43299866    4.90999985    2.89000010
   16.04916573  131.54499817    4.90999985    2.89000010
   16.05222130  120.88999939    4.90999985    2.89000010
   16.05833244  120.88999939    4.90999985    2.89000010
   16.06250000  128.92599487    4.90999985    2.89000010
   16.06555557  126.47299957    4.90999985    2.89000010
   16.06888962  119.67800140    4.90999985    2.89000010
   16.07194519  125.16600037    4.90999985    2.89000010
   16.07527924  124.92600250    4.90999985    2.89000010
   16.07861137  132.24299622    4.90999985    2.89000010
   16.08166695  130.14900208    4.90999985    2.89000010
   16.08500099  118.36599731    4.90999985    2.89000010
   16.08833313  124.22899628    4.90999985    2.89000010
   16.09138870  121.80699921    4.90999985    2.89000010
   16.09472275  126.73999786    4.90999985    2.89000010
   16.09555626  122.07099915    4.90999985    2.89000010
   16.10111237  122.07099915    4.90999985    2.89000010
   16.10527802  132.67300415    4.90999985    2.89000010
   16.10833359  130.62199402    4.90999985    2.89000010
   16.11166763  124.47299957    4.90999985    2.89000010
   16.11499977  121.39299774    4.90999985    2.89000010
   16.11805534  124.67099762    4.90999985    2.89000010
   16.12138939  112.95999908    4.90999985    2.89000010
   16.12472153  123.31800079    4.90999985    2.89000010
   16.12777710  121.32299805    4.90999985    2.89000010
   16.12888908  128.93099976    4.90999985    2.89000010
   16.13138962  113.91799927    4.90999985    2.89000010
   16.13472176  116.09899902    4.90999985    2.89000010
   16.13777733  111.79599762    4.90999985    2.89000010
   16.14388847  111.79599762    4.90999985    2.89000010
   16.14805603  120.47599792    4.90999985    2.89000010
   16.15138817  121.88400269    4.90999985    2.89000010
   16.15444374  119.85900116    4.90999985    2.89000010
   16.15777779  126.81900024    4.90999985    2.89000010
   16.16110992  126.39800262    4.90999985    2.89000010
   16.16222191  129.77200317    4.90999985    2.89000010
   16.16472244  126.27600098    4.90999985    2.89000010
   16.16805458  126.12599945    4.90999985    2.89000010
   16.17111015  131.90499878    4.90999985    2.89000010
   16.17444420  131.90600586    4.90999985    2.89000010
   16.17749977  126.82299805    4.90999985    2.89000010
   16.18083191  123.70099640    4.90999985    2.89000010
   16.18666649  123.70099640    4.90999985    2.89000010
   16.19083214  116.28299713    4.90999985    2.89000010
   16.19416618  117.87599945    4.90999985    2.89000010
   16.19555473  123.14700317    4.90999985    2.89000010
   16.19777679  123.45999908    4.90999985    2.89000010
   16.20111275  124.61100006    4.90999985    2.89000010
   16.20416832  124.80400085    4.90999985    2.89000010
   16.20750046  120.50399780    4.90999985    2.89000010
   16.21055603  118.61100006    4.90999985    2.89000010
   16.21389008  122.17900085    4.90999985    2.89000010
   16.21722221  122.83599854    4.90999985    2.89000010
   16.22027779  126.95700073    4.90999985    2.89000010
   16.22361183  124.61299896    4.90999985    2.89000010
   16.22972298  124.61299896    4.90999985    2.89000010
   16.23388863  118.46399689    4.90999985    2.89000010
   16.23694420  130.48399353    4.90999985    2.89000010
   16.24027824  120.06300354    4.90999985    2.89000010
   16.24333382  118.11299896    4.90999985    2.89000010
   16.24666786  121.87400055    4.90999985    2.89000010
   16.25000000  129.13200378    4.90999985    2.89000010
   16.25305557  126.10800171    4.90999985    2.89000010
   16.25638962  129.99099731    4.90999985    2.89000010
   16.25972176  124.07099915    4.90999985    2.89000010
   16.26222229  126.44699860    4.90999985    2.89000010
   16.26333427  126.77500153    4.90999985    2.89000010
   16.26666641  122.94999695    4.90999985    2.89000010
   16.27249908  122.94999695    4.90999985    2.89000010
   16.27666664  121.75800323    4.90999985    2.89000010
   16.27972221  122.83000183    4.90999985    2.89000010
   16.28305435  122.69599915    4.90999985    2.89000010
   16.28638840  125.63899994    4.90999985    2.89000010
   16.28944397  117.08000183    4.90999985    2.89000010
   16.29277802  123.39399719    4.90999985    2.89000010
   16.29555511  118.69400024    4.90999985    2.89000010
   16.29638863  128.17700195    4.90999985    2.89000010
   16.29972076  109.11599731    4.90999985    2.89000010
   16.30277634  118.55699921    4.90999985    2.89000010
   16.30611038  119.35099792    4.90999985    2.89000010
   16.30944443  115.81199646    4.90999985    2.89000010
   16.31527710  115.81199646    4.90999985    2.89000010
   16.31944466  125.53600311    4.90999985    2.89000010
   16.32277870  118.91699982    4.90999985    2.89000010
   16.32583427  119.41000366    4.90999985    2.89000010
   16.32888985  114.19300079    4.90999985    2.89000010
   16.32972336  113.84700012    4.90999985    2.89000010
   16.33305550  122.72899628    4.90999985    2.89000010
   16.33611107  123.48300171    4.90999985    2.89000010
   16.33944511  125.54900360    4.90999985    2.89000010
   16.34277916  126.70099640    4.90999985    2.89000010
   16.34583473  124.64800262    4.90999985    2.89000010
   16.34916687  116.36000061    4.90999985    2.89000010
   16.35222244  122.21700287    4.90999985    2.89000010
   16.35805511  122.21700287    4.90999985    2.89000010
   16.36222267  122.85900116    4.90999985    2.89000010
   16.36555672  126.30899811    4.90999985    2.89000010
   16.36888885  129.62300110    4.90999985    2.89000010
   16.37194443  126.17600250    4.90999985    2.89000010
   16.37527847  121.36199951    4.90999985    2.89000010
   16.37833405  118.47200012    4.90999985    2.89000010
   16.38166618  124.50099945    4.90999985    2.89000010
   16.38500023  125.68699646    4.90999985    2.89000010
   16.38805580  129.04899597    4.90999985    2.89000010
   16.39138794  131.52999878    4.90999985    2.89000010
   16.39472198  122.16600037    4.90999985    2.89000010
   16.39555550  117.74700165    4.90999985    2.89000010
   16.41638756  117.74700165    4.90999985    2.89000010
   16.42055511  119.34100342    4.90999985    2.89000010
   16.42361069  120.74600220    4.90999985    2.89000010
   16.42694473  127.31600189    4.90999985    2.89000010
   16.42888832  131.56399536    4.90999985    2.89000010
   16.43055534  121.78299713    4.90999985    2.89000010
   16.43388748  118.45800018    4.90999985    2.89000010
   16.43722153  124.65299988    4.90999985    2.89000010
   16.44055557  120.10299683    4.90999985    2.89000010
   16.44361115  119.73899841    4.90999985    2.89000010
   16.44694328  121.11900330    4.90999985    2.89000010
   16.45027924  121.85700226    4.90999985    2.89000010
   16.45333481  119.83699799    4.90999985    2.89000010
   16.45916748  119.83699799    4.90999985    2.89000010
   16.46333504  122.37599945    4.90999985    2.89000010
   16.46638870  116.49299622    4.90999985    2.89000010
   16.46972275  129.88099670    4.90999985    2.89000010
   16.47277832  116.52200317    4.90999985    2.89000010
   16.47611237  124.63500214    4.90999985    2.89000010
   16.47944450  122.84100342    4.90999985    2.89000010
   16.48250008  124.64800262    4.90999985    2.89000010
   16.48583412  116.73100281    4.90999985    2.89000010
   16.48916626  122.63800049    4.90999985    2.89000010
   16.49222183  124.96199799    4.90999985    2.89000010
   16.49555588  123.50299835    4.90999985    2.89000010
   16.49611092  128.74800110    4.90999985    2.89000010
   16.50194359  128.74800110    4.90999985    2.89000010
   16.50611115  125.17400360    4.90999985    2.89000010
   16.50916672  124.16100311    4.90999985    2.89000010
   16.51250076  132.69099426    4.90999985    2.89000010
   16.51583290  114.61699677    4.90999985    2.89000010
   16.51888847  121.55999756    4.90999985    2.89000010
   16.52222252  119.09100342    4.90999985    2.89000010
   16.52555466  117.63800049    4.90999985    2.89000010
   16.52861023  118.61000061    4.90999985    2.89000010
   16.52944374  123.11000061    4.90999985    2.89000010
   16.53222275  119.95500183    4.90999985    2.89000010
   16.53555489  139.79100037    4.90999985    2.89000010
   16.53888893  123.92299652    4.90999985    2.89000010
   16.54472160  123.92299652    4.90999985    2.89000010
   16.54888916  132.51499939    4.90999985    2.89000010
   16.55222130  125.59200287    4.90999985    2.89000010
   16.55527687  121.43199921    4.90999985    2.89000010
   16.55861092  120.50700378    4.90999985    2.89000010
   16.56166649  118.24700165    4.90999985    2.89000010
   16.56277657  125.05799866    4.90999985    2.89000010
   16.56527710  123.95800018    4.90999985    2.89000010
   16.56861115  120.13400269    4.90999985    2.89000010
   16.57194519  118.79599762    4.90999985    2.89000010
   16.57500076  118.89700317    4.90999985    2.89000010
   16.57833481  113.00499725    4.90999985    2.89000010
   16.58166695  121.76599884    4.90999985    2.89000010
   16.58750153  121.76599884    4.90999985    2.89000010
   16.59166718  123.41500092    4.90999985    2.89000010
   16.59500122  124.16300201    4.90999985    2.89000010
   16.59611130  127.79100037    4.90999985    2.89000010
   16.59861183  125.86000061    4.90999985    2.89000010
   16.60194397  118.30899811    4.90999985    2.89000010
   16.60527802  123.76200104    4.90999985    2.89000010
   16.60833359  117.12599945    4.90999985    2.89000010
   16.61166763  128.45300293    4.90999985    2.89000010
   16.61499977  127.55500031    4.90999985    2.89000010
   16.61805534  127.53900146    4.90999985    2.89000010
   16.62138939  137.36900330    4.90999985    2.89000010
   16.62444496  130.56700134    4.90999985    2.89000010
   16.63055611  130.56700134    4.90999985    2.89000010
   16.63472176  118.73000336    4.90999985    2.89000010
   16.63777733  123.78500366    4.90999985    2.89000010
   16.64111137  113.40599823    4.90999985    2.89000010
   16.64416695  122.51899719    4.90999985    2.89000010
   16.64749908  124.05100250    4.90999985    2.89000010
   16.65083313  114.08399963    4.90999985    2.89000010
   16.65388870  115.39499664    4.90999985    2.89000010
   16.65722275  119.27999878    4.90999985    2.89000010
   16.66055489  119.97899628    4.90999985    2.89000010
   16.66277695  126.16100311    4.90999985    2.89000010
   16.66388893  124.62500000    4.90999985    2.89000010
   16.66722107  119.81400299    4.90999985    2.89000010
   16.67333221  119.81400299    4.90999985    2.89000010
   16.67749977  116.23600006    4.90999985    2.89000010
   16.68055534  119.87999725    4.90999985    2.89000010
   16.68388748  125.73600006    4.90999985    2.89000010
   16.68722153  129.50199890    4.90999985    2.89000010
   16.69027710  115.94499969    4.90999985    2.89000010
   16.69361115  129.31900024    4.90999985    2.89000010
   16.69610977  120.66899872    4.90999985    2.89000010
   16.69694328  123.41200256    4.90999985    2.89000010
   16.70027924  126.16100311    4.90999985    2.89000010
   16.70361137  125.48300171    4.90999985    2.89000010
   16.70666695  131.92300415    4.90999985    2.89000010
   16.71000099  119.88800049    4.90999985    2.89000010
   16.71611214  119.88800049    4.90999985    2.89000010
   16.72027779  132.22900391    4.90999985    2.89000010
   16.72361183  120.68299866    4.90999985    2.89000010
   16.72666740  123.34300232    4.90999985    2.89000010
   16.72944450  118.70300293    4.90999985    2.89000010
   16.73027802  112.88200378    4.90999985    2.89000010
   16.73361206  121.56600189    4.90999985    2.89000010
   16.73694420  109.63500214    4.90999985    2.89000010
   16.73999977  120.31099701    4.90999985    2.89000010
   16.74333382  117.60500336    4.90999985    2.89000010
   16.74666786  122.52400208    4.90999985    2.89000010
   16.74972153  119.85399628    4.90999985    2.89000010
   16.75305557  129.97300720    4.90999985    2.89000010
   16.75888824  129.97300720    4.90999985    2.89000010
   16.76305580  111.10600281    4.90999985    2.89000010
   16.76638794  133.92399597    4.90999985    2.89000010
   16.76972198  109.34100342    4.90999985    2.89000010
   16.77277756  125.17800140    4.90999985    2.89000010
   16.77611160  118.83599854    4.90999985    2.89000010
   16.77916718  127.52799988    4.90999985    2.89000010
   16.78249931  117.46399689    4.90999985    2.89000010
   16.78583336  114.57700348    4.90999985    2.89000010
   16.78888893  129.90699768    4.90999985    2.89000010
   16.79222107  122.58000183    4.90999985    2.89000010
   16.79555511  121.25700378    4.90999985    2.89000010
   16.79611015  119.87200165    4.90999985    2.89000010
   16.80194283  119.87200165    4.90999985    2.89000010
   16.80611038  128.55999756    4.90999985    2.89000010
   16.80916595  128.57200623    4.90999985    2.89000010
   16.81250000  125.48500061    4.90999985    2.89000010
   16.81555557  122.66500092    4.90999985    2.89000010
   16.81888962  128.19799805    4.90999985    2.89000010
   16.82222366  123.83300018    4.90999985    2.89000010
   16.82527924  121.44599915    4.90999985    2.89000010
   16.82861137  112.98699951    4.90999985    2.89000010
   16.82944489  117.00700378    4.90999985    2.89000010
   16.83222389  121.36399841    4.90999985    2.89000010
   16.83527756  120.66400146    4.90999985    2.89000010
   16.83861160  124.47699738    4.90999985    2.89000010
   16.84472275  124.47699738    4.90999985    2.89000010
   16.84889030  119.43499756    4.90999985    2.89000010
   16.85194397  119.12999725    4.90999985    2.89000010
   16.85527802  112.46099854    4.90999985    2.89000010
   16.85861206  122.29599762    4.90999985    2.89000010
   16.86166763  118.20600128    4.90999985    2.89000010
   16.86277771  111.20999908    4.90999985    2.89000010
   16.86555672  120.86100006    4.90999985    2.89000010
   16.86861038  126.14800262    4.90999985    2.89000010
   16.87194443  118.70099640    4.90999985    2.89000010
   16.87500000  129.32200623    4.90999985    2.89000010
   16.87833405  117.94799805    4.90999985    2.89000010
   16.88166618  123.10199738    4.90999985    2.89000010
   16.88750076  123.10199738    4.90999985    2.89000010
   16.89166641  123.91200256    4.90999985    2.89000010
   16.89500046  132.44500732    4.90999985    2.89000010
   16.89611053  124.88200378    4.90999985    2.89000010
   16.89861107  119.60099792    4.90999985    2.89000010
   16.90166664  122.83300018    4.90999985    2.89000010
   16.90499878  117.16999817    4.90999985    2.89000010
   16.90805435  125.16600037    4.90999985    2.89000010
   16.91138840  129.91099548    4.90999985    2.89000010
   16.91472244  122.19400024    4.90999985    2.89000010
   16.91777802  114.34100342    4.90999985    2.89000010
   16.92111015  116.40799713    4.90999985    2.89000010
   16.92444420  107.82299805    4.90999985    2.89000010
   16.93027687  107.82299805    4.90999985    2.89000010
   16.93444443  128.19799805    4.90999985    2.89000010
   16.93777657  124.33899689    4.90999985    2.89000010
   16.94083214  127.63600159    4.90999985    2.89000010
   16.94416618  120.87300110    4.90999985    2.89000010
   16.94749832  117.56199646    4.90999985    2.89000010
   16.95055580  139.97700500    4.90999985    2.89000010
   16.95388985  123.00399780    4.90999985    2.89000010
   16.95722389  132.21299744    4.90999985    2.89000010
   16.96027946  114.74299622    4.90999985    2.89000010
   16.96277809  119.43599701    4.90999985    2.89000010
   16.96416664  113.42299652    4.90999985    2.89000010
   16.96722221  131.70100403    4.90999985    2.89000010
   16.97333336  131.70100403    4.90999985    2.89000010
   16.97722244  119.37799835    4.90999985    2.89000010
   16.98055649  122.51499939    4.90999985    2.89000010
   16.98388863  130.55999756    4.90999985    2.89000010
   16.98694420  107.03700256    4.90999985    2.89000010
   16.99027824  129.52499390    4.90999985    2.89000010
   16.99361229  126.49299622    4.90999985    2.89000010
   16.99611092  111.37300110    4.90999985    2.89000010
   16.99722290  122.40499878    4.90999985    2.89000010
   17.00027847  120.53299713    4.90999985    2.89000010
   17.00361061  125.23899841    4.90999985    2.89000010
   17.00694466  117.20800018    4.90999985    2.89000010
   17.01000023  122.32800293    4.90999985    2.89000010
   17.01611137  122.32800293    4.90999985    2.89000010
   17.02027702  120.62200165    4.90999985    2.89000010
   17.02333260  118.94899750    4.90999985    2.89000010
   17.02666664  121.29100037    4.90999985    2.89000010
   17.02944374  115.44499969    4.90999985    2.89000010
   17.03027725  124.30999756    4.90999985    2.89000010
   17.03333282  121.44100189    4.90999985    2.89000010
   17.03666687  123.11499786    4.90999985    2.89000010
   17.03999901  118.99299622    4.90999985    2.89000010
   17.04305458  126.68900299    4.90999985    2.89000010
   17.04638863  123.58799744    4.90999985    2.89000010
   17.04972076  121.35099792    4.90999985    2.89000010
   17.05277634  123.73400116    4.90999985    2.89000010
   17.05888748  123.73400116    4.90999985    2.89000010
   17.06305504  118.46299744    4.90999985    2.89000010
   17.06638718  121.83100128    4.90999985    2.89000010
   17.06944466  126.23899841    4.90999985    2.89000010
   17.07277870  123.15799713    4.90999985    2.89000010
   17.07583427  123.40699768    4.90999985    2.89000010
   17.07916832  119.37799835    4.90999985    2.89000010
   17.08250046  121.99400330    4.90999985    2.89000010
   17.08555603  120.60399628    4.90999985    2.89000010
   17.08889008  123.61900330    4.90999985    2.89000010
   17.09222221  130.93400574    4.90999985    2.89000010
   17.09527779  123.20099640    4.90999985    2.89000010
   17.09611130  120.25499725    4.90999985    2.89000010
   17.10166740  120.25499725    4.90999985    2.89000010
   17.10583305  118.84999847    4.90999985    2.89000010
   17.10916710  123.47100067    4.90999985    2.89000010
   17.11222267  116.53299713    4.90999985    2.89000010
   17.11555672  125.55799866    4.90999985    2.89000010
   17.11888885  127.67500305    4.90999985    2.89000010
   17.12222290  121.99600220    4.90999985    2.89000010
   17.12527847  116.84200287    4.90999985    2.89000010
   17.12861061  118.39299774    4.90999985    2.89000010
   17.12944412  120.64600372    4.90999985    2.89000010
   17.13222313  114.21199799    4.90999985    2.89000010
   17.13527679  120.12500000    4.90999985    2.89000010
   17.13861084  113.34600067    4.90999985    2.89000010
   17.14472198  113.34600067    4.90999985    2.89000010
   17.14861107  122.34200287    4.90999985    2.89000010
   17.15194321  121.61499786    4.90999985    2.89000010
   17.15527725  117.14099884    4.90999985    2.89000010
   17.15833282  128.42100525    4.90999985    2.89000010
   17.16166687  120.42400360    4.90999985    2.89000010
   17.16277695  118.64600372    4.90999985    2.89000010
   17.16527748  111.40499878    4.90999985    2.89000010
   17.16833305  117.08100128    4.90999985    2.89000010
   17.17166519  116.87599945    4.90999985    2.89000010
   17.17499924  118.37100220    4.90999985    2.89000010
   17.17805481  117.80799866    4.90999985    2.89000010
   17.18138885  125.73999786    4.90999985    2.89000010
   17.18750000  125.73999786    4.90999985    2.89000010
   17.19166565  126.81500244    4.90999985    2.89000010
   17.19472122  122.72200012    4.90999985    2.89000010
   17.19610977  126.52200317    4.90999985    2.89000010
   17.19861031  122.99099731    4.90999985    2.89000010
   17.20166779  107.53500366    4.90999985    2.89000010
   17.20499992  130.85400391    4.90999985    2.89000010
   17.20833397  128.35899353    4.90999985    2.89000010
   17.21138954  130.62100220    4.90999985    2.89000010
   17.21472359  123.40599823    4.90999985    2.89000010
   17.21805573  126.53900146    4.90999985    2.89000010
   17.22111130  126.15799713    4.90999985    2.89000010
   17.22444534  121.69100189    4.90999985    2.89000010
   17.23027802  121.69100189    4.90999985    2.89000010
   17.23444557  116.69799805    4.90999985    2.89000010
   17.23777771  125.98799896    4.90999985    2.89000010
   17.24083328  116.23000336    4.90999985    2.89000010
   17.24416733  126.56099701    4.90999985    2.89000010
   17.24722290  115.65200043    4.90999985    2.89000010
   17.25055504  121.35900116    4.90999985    2.89000010
   17.25388908  119.96700287    4.90999985    2.89000010
   17.25694466  121.59600067    4.90999985    2.89000010
   17.26027870  121.54699707    4.90999985    2.89000010
   17.26277733  127.64199829    4.90999985    2.89000010
   17.26388931  120.23999786    4.90999985    2.89000010
   17.26694489  114.04199982    4.90999985    2.89000010
   17.27305603  114.04199982    4.90999985    2.89000010
   17.27722168  136.78300476    4.90999985    2.89000010
   17.28055573  122.38200378    4.90999985    2.89000010
   17.28361130  129.05000305    4.90999985    2.89000010
   17.28694344  131.66200256    4.90999985    2.89000010
   17.29027748  121.50599670    4.90999985    2.89000010
   17.29333305  118.39499664    4.90999985    2.89000010
   17.29611015  122.67199707    4.90999985    2.89000010
   17.29722214  129.35400391    4.90999985    2.89000010
   17.30027771  131.27299500    4.90999985    2.89000010
   17.30360985  123.47200012    4.90999985    2.89000010
   17.30694389  128.28999329    4.90999985    2.89000010
   17.30999947  114.20500183    4.90999985    2.89000010
   17.31611061  114.20500183    4.90999985    2.89000010
   17.32000160  123.44300079    4.90999985    2.89000010
   17.32333374  138.62699890    4.90999985    2.89000010
   17.32666779  122.94499969    4.90999985    2.89000010
   17.32944489  128.70399475    4.90999985    2.89000010
   17.33027840  132.27000427    4.90999985    2.89000010
   17.33333397  131.80499268    4.90999985    2.89000010
   17.33666801  138.64700317    4.90999985    2.89000010
   17.34000015  131.22599792    4.90999985    2.89000010
   17.34305573  137.92399597    4.90999985    2.89000010
   17.34638977  146.38999939    4.90999985    2.89000010
   17.34972191  135.22599792    4.90999985    2.89000010
   17.35277748  129.78399658    4.90999985    2.89000010
   17.35888863  129.78399658    4.90999985    2.89000010
   17.36305618   -1.00000000    4.90999985    2.89000010
   17.36611176   -1.00000000   -1.00000000   -1.00000000
   17.36944389  159.38800049    4.90999985    2.89000010
   17.37277794  157.16099548    4.90999985    2.89000010
   17.37583351  205.55799866    4.90999985    2.89000010
   17.37916756  240.60800171    4.90999985    2.89000010
   17.38222313  169.32699585    4.90999985    2.89000010
   17.38555527   -1.00000000    4.90999985    2.89000010
   17.38888931   -1.00000000    4.90999985    2.89000010
   17.39194489   -1.00000000    4.90999985    2.89000010
   17.39527702   -1.00000000    4.90999985    2.89000010
   17.40166664   -1.00000000    4.90999985    2.89000010
   17.40583229   50.74760056    4.90999985    2.89000010
   17.40916634   88.01390076    4.90999985    2.89000010
   17.41222191   35.32030106    4.90999985    2.89000010
   17.43222237   -1.00000000    4.90999985    2.89000010
   17.43527603   -1.00000000    4.90999985    2.89000010
   17.43861008   -1.00000000    4.90999985    2.89000010
   17.44472122   -1.00000000    4.90999985    2.89000010
   17.44888878  164.25399780    4.90999985    2.89000010
   17.45194435   -1.00000000    4.90999985    2.89000010
   17.45527840   -1.00000000    4.90999985    2.89000010
   17.45861244  104.04799652    4.90999985    2.89000010
   17.46166801  287.07400513    4.90999985    2.89000010
   17.46305656  252.71899414    4.90999985    2.89000010
   17.46555710  292.28399658    4.90999985    2.89000010
   17.46888924  206.85699463    4.90999985    2.89000010
   17.47194481  215.25399780    4.90999985    2.89000010
   17.47527885  163.79600525    4.90999985    2.89000010
   17.47833443   -1.00000000    4.90999985    2.89000010
   17.48166656   -1.00000000    4.90999985    2.89000010
   17.48750114   -1.00000000    4.90999985    2.89000010
   17.49166679  212.33099365    4.90999985    2.89000010
   17.49500084  162.10299683    4.90999985    2.89000010
   17.49638939  153.26800537    4.90999985    2.89000010
   17.49861145  158.29800415    4.90999985    2.89000010
   17.50166702  508.48098755    4.90999985    2.89000010
   17.50388908  274.65399170    4.90999985    2.89000010
   17.50499916  333.17700195    4.90999985    2.89000010
   17.50638962  337.18200684    4.90999985    2.89000010
   17.50777817  239.68400574    4.90999985    2.89000010
   17.50805473  508.48098755    4.90999985    2.89000010
   17.50805473  206.85699463    4.90999985    2.89000010
   17.50805473  215.25399780    4.90999985    2.89000010
   17.50833321  163.79600525    4.90999985    2.89000010
   17.50833321   -1.00000000    4.90999985    2.89000010
   17.50833321   -1.00000000    4.90999985    2.89000010
   17.50861168  212.33099365    4.90999985    2.89000010
   17.50861168  162.10299683    4.90999985    2.89000010
   17.50861168  158.29800415    4.90999985    2.89000010
   17.50944519  223.87100220    4.90999985    2.89000010
   17.51250076  165.13200378    4.90999985    2.89000010
   17.51583290  145.76300049    4.90999985    2.89000010
   17.51888847  167.40499878    4.90999985    2.89000010
   17.52222252  150.52400208    4.90999985    2.89000010
   17.52861023  150.52400208    4.90999985    2.89000010
   17.53277779  149.06900024    4.90999985    2.89000010
   17.53610992  140.42300415    4.90999985    2.89000010
   17.53916550  138.78199768    4.90999985    2.89000010
   17.54166603  140.39199829    4.90999985    2.89000010
   17.54305458  134.75599670    4.90999985    2.89000010
   17.54638863  259.53500366    4.90999985    2.89000010
   17.54944420  208.27699280    4.90999985    2.89000010
   17.55277634  267.50698853    4.90999985    2.89000010
   17.55583191  103.02600098    4.90999985    2.89000010
   17.55916595   60.08029938    4.90999985    2.89000010
   17.56250000   -1.00000000    4.90999985    2.89000010
   17.56555557   -1.00000000    4.90999985    2.89000010
   17.57166672   -1.00000000    4.90999985    2.89000010
   17.57555580  104.59300232    4.90999985    2.89000010
   17.57888985   -1.00000000    4.90999985    2.89000010
   17.58222389   -1.00000000    4.90999985    2.89000010
   17.58527756   -1.00000000    4.90999985    2.89000010
   17.58861160   -1.00000000    4.90999985    2.89000010
   17.59166718   -1.00000000    4.90999985    2.89000010
   17.59500122   -1.00000000    4.90999985    2.89000010
   17.59833336   -1.00000000    4.90999985    2.89000010
   17.60138893   23.57019997    4.90999985    2.89000010
   17.60472298   97.73509979    4.90999985    2.89000010
   17.60805511   44.26969910    4.90999985    2.89000010
   17.60861206   42.80659866    4.90999985    2.89000010
   17.61833382   -1.00000000    4.90999985    2.89000010
   17.62166595   -1.00000000    4.90999985    2.89000010
   17.62500000   -1.00000000    4.90999985    2.89000010
   17.62805557   -1.00000000    4.90999985    2.89000010
   17.63138962   -1.00000000    4.90999985    2.89000010
   17.63444519   -1.00000000    4.90999985    2.89000010
   17.63777733   -1.00000000    4.90999985    2.89000010
   17.64111137   -1.00000000    4.90999985    2.89000010
   17.64444351   -1.00000000    4.90999985    2.89000010
   17.64749908   -1.00000000    4.90999985    2.89000010
   17.65083313   -1.00000000    4.90999985    2.89000010
   17.66110992   -1.00000000    4.90999985    2.89000010
   17.66444397   -1.00000000    4.90999985    2.89000010
   17.66777802   -1.00000000    4.90999985    2.89000010
   17.67083359   -1.00000000    4.90999985    2.89000010
   17.67416573   -1.00000000    4.90999985    2.89000010
   17.67777634   -1.00000000   -1.00000000   -1.00000000
   17.68083191  189.61700439    4.90999985    2.89000010
   17.68416595  328.09600830    4.90999985    2.89000010
   17.68610954   41.89329910    4.90999985    2.89000010
   17.68638802   -1.00000000    4.90999985    2.89000010
   17.68638802   -1.00000000    4.90999985    2.89000010
   17.68666649   -1.00000000    4.90999985    2.89000010
   17.68666649   -1.00000000    4.90999985    2.89000010
   17.68666649   -1.00000000    4.90999985    2.89000010
   17.68694305   -1.00000000    4.90999985    2.89000010
   17.68694305   -1.00000000   -1.00000000   -1.00000000
   17.68694305  189.61700439    4.90999985    2.89000010
   17.68888855   -1.00000000    4.90999985    2.89000010
   17.69222069   -1.00000000    4.90999985    2.89000010
   17.69555473   -1.00000000    4.90999985    2.89000010
   17.69861031   -1.00000000    4.90999985    2.89000010
   17.70194435   -1.00000000    4.90999985    2.89000010
   17.71111107   -1.00000000    4.90999985    2.89000010
   17.71444511   -1.00000000    4.90999985    2.89000010
   17.71750069   -1.00000000    4.90999985    2.89000010
   17.72111130   -1.00000000    4.90999985    2.89000010
