    HOUR (UT)   FLARE FACTOR    SKY TESTER    SUN TESTER
   11.48527813   -1.00000000   -1.00000000   -1.00000000
   11.52555561   92.65270233    0.00000000    0.00000000
   11.52888870   86.82260132    0.00000000    0.00000000
   11.53194427   93.50620270    0.00000000    0.00000000
   11.53527832   86.22750092    0.00000000    0.00000000
   11.53833389   89.88490295    0.00000000    0.00000000
   11.54166698   86.17819977    0.00000000    0.00000000
   11.54583359   86.17819977    0.00000000    0.00000000
   11.55000019   92.83450317    0.00000000    0.00000000
   11.55305576   90.62280273    0.00000000    0.00000000
   11.55666733   93.20529938    0.00000000    0.00000000
   11.55888939   95.91190338    0.00000000    0.00000000
   11.56027794   98.95960236    0.00000000    0.00000000
   11.56361103   89.89289856    0.00000000    0.00000000
   11.56694412   88.27870178    0.00000000    0.00000000
   11.56999969   88.33170319    0.00000000    0.00000000
   11.57333374   89.40769958    0.00000000    0.00000000
   11.57638836   90.93280029    0.00000000    0.00000000
   11.57972240   87.54640198    0.00000000    0.00000000
   11.58305550   86.10209656    0.00000000    0.00000000
   11.58861065   86.10209656    0.00000000    0.00000000
   11.59277725   94.76799774    0.00000000    0.00000000
   11.59611034   88.56400299    0.00000000    0.00000000
   11.59916592   93.20770264    0.00000000    0.00000000
   11.60249996   84.77069855    0.00000000    0.00000000
   11.60583401   82.83290100    0.00000000    0.00000000
   11.60888958   87.22889709    0.00000000    0.00000000
   11.61222267   87.30719757    0.00000000    0.00000000
   11.61555576   89.59839630    0.00000000    0.00000000
   11.61861134   94.41259766    0.00000000    0.00000000
   11.62194443   87.94550323    0.00000000    0.00000000
   11.62527752   94.59159851    0.00000000    0.00000000
   11.62583351   88.98880005    0.00000000    0.00000000
   11.63138866   88.98880005    0.00000000    0.00000000
   11.63555527   94.73220062    0.00000000    0.00000000
   11.63888836   89.53050232    0.00000000    0.00000000
   11.64222240   92.67060089    0.00000000    0.00000000
   11.64527798   89.40049744    0.00000000    0.00000000
   11.64861107   85.02700043    1.73000002    2.67000008
   11.65166664   84.54550171    1.73000002    2.67000008
   11.65499973   87.34380341    1.73000002    2.67000008
   11.65833282   89.42120361    1.73000002    2.67000008
   11.65916634   87.15360260    1.73000002    2.67000008
   11.66166592   93.18730164    1.73000002    2.67000008
   11.66499996   92.31279755    1.73000002    2.67000008
   11.66833401   89.41919708    1.73000002    2.67000008
   11.67444515   89.41919708    1.73000002    2.67000008
   11.67861176   89.18609619    1.73000002    2.67000008
   11.68166733   93.72429657    1.73000002    2.67000008
   11.68500042   95.61560059    1.73000002    2.67000008
   11.68805599   91.07360077    1.73000002    2.67000008
   11.69138908   95.55850220    1.73000002    2.67000008
   11.69250011   92.55840302    1.73000002    2.67000008
   11.69499969   86.53710175    1.73000002    2.67000008
   11.69833374   89.41929626    1.73000002    2.67000008
   11.70166683   93.69190216    1.73000002    2.67000008
   11.70472240   89.60810089    1.73000002    2.67000008
   11.70805550   90.81510162    1.73000002    2.67000008
   11.71166611   93.62560272    1.73000002    2.67000008
   11.71722221   93.62560272    1.73000002    2.67000008
   11.72138882   96.06250000    1.73000002    2.67000008
   11.72472191   90.03299713    1.73000002    2.67000008
   11.72583294   90.17440033    1.73000002    2.67000008
   11.72805500   93.73709869    1.73000002    2.67000008
   11.73138809   94.48370361    1.73000002    2.67000008
   11.73444462   88.74669647    1.73000002    2.67000008
   11.73777771   92.38220215    1.73000002    2.67000008
   11.74111176   95.38520050    1.73000002    2.67000008
   11.74416733   92.65850067    1.73000002    2.67000008
   11.74750042   88.21289825    1.73000002    2.67000008
   11.75083351   88.27480316    1.73000002    2.67000008
   11.75388908   93.73480225    1.73000002    2.67000008
   11.76000023   93.73480225    1.73000002    2.67000008
   11.76416683   88.51660156    1.73000002    2.67000008
   11.76749992   92.96330261    1.73000002    2.67000008
   11.77055550   91.18579865    1.73000002    2.67000008
   11.77388859   87.83550262    1.73000002    2.67000008
   11.77722168   88.85099792    1.73000002    2.67000008
   11.78027725   87.30580139    1.73000002    2.67000008
   11.78361130   85.39939880    1.73000002    2.67000008
   11.78666687   85.26770020    1.73000002    2.67000008
   11.79000092   89.77380371    1.73000002    2.67000008
   11.79250050   90.81279755    1.73000002    2.67000008
   11.79361153   85.27140045    1.73000002    2.67000008
   11.79694462   86.01020050    1.73000002    2.67000008
   11.80277824   86.01020050    1.73000002    2.67000008
   11.80694485   90.02890015    1.73000002    2.67000008
   11.81027794   86.57610321    1.73000002    2.67000008
   11.81333351   84.85669708    1.73000002    2.67000008
   11.81666660   95.28489685    1.73000002    2.67000008
   11.81999969   92.42030334    1.73000002    2.67000008
   11.82305527   88.92459869    1.73000002    2.67000008
   11.82583332   91.99490356    1.73000002    2.67000008
   11.82666683   85.77420044    1.73000002    2.67000008
   11.82999992   88.44609833    1.73000002    2.67000008
   11.83333302   90.89340210    1.73000002    2.67000008
   11.83638859   94.65409851    1.73000002    2.67000008
   11.83972168   93.78569794    1.73000002    2.67000008
   11.84583282   93.78569794    1.73000002    2.67000008
   11.85000038   88.63539886    1.73000002    2.67000008
   11.85305595   91.11830139    1.73000002    2.67000008
   11.85638905   88.83119965    1.73000002    2.67000008
   11.85916710   80.78009796    1.73000002    2.67000008
   11.86000061   87.09200287    1.73000002    2.67000008
   11.86333370   86.73829651    1.73000002    2.67000008
   11.86666679   83.49120331    1.73000002    2.67000008
   11.86972237   96.42310333    1.73000002    2.67000008
   11.87305546   90.05590057    1.73000002    2.67000008
   11.87611103   88.84110260    1.73000002    2.67000008
   11.87944412   85.08300018    1.73000002    2.67000008
   11.88277817   84.19219971    1.73000002    2.67000008
   11.88861084   84.19219971    1.73000002    2.67000008
   11.89277744   84.16040039    1.73000002    2.67000008
   11.89583302   86.10849762    1.73000002    2.67000008
   11.89916611   87.89579773    1.73000002    2.67000008
   11.90249920   97.59819794    1.73000002    2.67000008
   11.90583324   88.74579620    1.73000002    2.67000008
   11.90888882   90.09010315    1.73000002    2.67000008
   11.91222191   86.85399628    1.73000002    2.67000008
   11.91527748   88.42199707    1.73000002    2.67000008
   11.91861153   90.04730225    1.73000002    2.67000008
   11.92194462   84.36370087    1.73000002    2.67000008
   11.92500019   91.07420349    1.73000002    2.67000008
   11.92583370   81.85459900    1.73000002    2.67000008
   11.93138885   81.85459900    1.73000002    2.67000008
   11.93555546   90.58869934    1.73000002    2.67000008
   11.93888855   86.98940277    1.73000002    2.67000008
   11.94194412   83.48590088    1.73000002    2.67000008
   11.94527817   90.21610260    1.73000002    2.67000008
   11.94861126   96.24250031    1.73000002    2.67000008
   11.95166683   91.06369781    1.73000002    2.67000008
   11.95499992   84.48850250    1.73000002    2.67000008
   11.95805550   94.98850250    1.73000002    2.67000008
   11.95916653   89.47859955    1.73000002    2.67000008
   11.96166611   85.42870331    1.73000002    2.67000008
   11.96500015   87.77469635    1.73000002    2.67000008
   11.96833324   81.80339813    1.73000002    2.67000008
   11.97416592   81.80339813    1.73000002    2.67000008
   11.97833252   88.65200043    1.73000002    2.67000008
   11.98166656   88.59700012    1.73000002    2.67000008
   11.98472214   92.43049622    1.73000002    2.67000008
   11.98833370   87.08360291    1.73000002    2.67000008
   11.99138927   96.29930115    1.73000002    2.67000008
   11.99250031   89.57759857    1.73000002    2.67000008
   11.99499989   88.42060089    1.73000002    2.67000008
   11.99833393   93.65290070    1.73000002    2.67000008
   12.00166702   92.86519623    1.73000002    2.67000008
   12.00472260   97.89270020    1.73000002    2.67000008
   12.00805569   84.27700043    1.73000002    2.67000008
   12.01111126   89.32099915    1.73000002    2.67000008
   12.01722240   89.32099915    1.73000002    2.67000008
   12.02111053   97.59510040    1.73000002    2.67000008
   12.02444458   91.18830109    1.73000002    2.67000008
   12.02583313   90.50420380    1.73000002    2.67000008
   12.02805519   93.90689850    1.73000002    2.67000008
   12.03138828   90.99060059    1.73000002    2.67000008
   12.03472233   94.29039764    1.73000002    2.67000008
   12.03777790   95.03260040    1.73000002    2.67000008
   12.04111195   95.51059723    1.73000002    2.67000008
   12.04416752   80.85829926    1.73000002    2.67000008
   12.04750061   92.44429779    1.73000002    2.67000008
   12.05083370   92.33950043    1.73000002    2.67000008
   12.05388927   95.88890076    1.73000002    2.67000008
   12.06000042   95.88890076    1.73000002    2.67000008
   12.06416702   95.30979919    1.73000002    2.67000008
   12.06722260   91.42659760    1.73000002    2.67000008
   12.07055569   91.27420044    1.73000002    2.67000008
   12.07388878   84.43470001    1.73000002    2.67000008
   12.07694435   92.86720276    1.73000002    2.67000008
   12.08027744   82.74310303    1.73000002    2.67000008
   12.08333302   87.57089996    1.73000002    2.67000008
   12.08666611   85.72679901    1.73000002    2.67000008
   12.09000015   86.97319794    1.73000002    2.67000008
   12.09249973   91.41259766    1.73000002    2.67000008
   12.09333324   98.66989899    1.73000002    2.67000008
   12.09666634   96.38459778    1.73000002    2.67000008
   12.10277843   96.38459778    1.73000002    2.67000008
   12.10694504   96.55059814    1.73000002    2.67000008
   12.11027813  103.26799774    1.73000002    2.67000008
   12.11333370   97.51740265    1.73000002    2.67000008
   12.11666679   93.37709808    1.73000002    2.67000008
   12.11999989   93.02619934    1.73000002    2.67000008
   12.12305546   96.93979645    1.73000002    2.67000008
   12.12583351   97.09629822    1.73000002    2.67000008
   12.12666702   95.22640228    1.73000002    2.67000008
   12.13000011   93.89859772    1.73000002    2.67000008
   12.13333321   96.02790070    1.73000002    2.67000008
   12.13638878   94.21170044    1.73000002    2.67000008
   12.13972187   95.65190125    1.73000002    2.67000008
   12.14555550   95.65190125    1.73000002    2.67000008
   12.14972210   89.92590332    1.73000002    2.67000008
   12.15305519   93.07189941    1.73000002    2.67000008
   12.15611076   98.34750366    1.73000002    2.67000008
   12.15916634   90.11789703    1.73000002    2.67000008
   12.15972137   89.29029846    1.73000002    2.67000008
   12.16305542   95.13700104    1.73000002    2.67000008
   12.16638851   92.06950378    1.73000002    2.67000008
   12.16944504   90.28910065    1.73000002    2.67000008
   12.17277813   89.14779663    1.73000002    2.67000008
   12.17611122   96.40709686    1.73000002    2.67000008
   12.17916679   98.97319794    1.73000002    2.67000008
   12.18249989   91.94869995    1.73000002    2.67000008
   12.18861103   91.94869995    1.73000002    2.67000008
   12.19250011   93.46549988    1.73000002    2.67000008
   12.19583321   99.06439972    1.73000002    2.67000008
   12.19916630   93.93560028    1.73000002    2.67000008
   12.20222187   96.65019989    1.73000002    2.67000008
   12.20555496   91.84429932    1.73000002    2.67000008
   12.20888901   99.74949646    1.73000002    2.67000008
   12.21194458  107.84300232    1.73000002    2.67000008
   12.21527767  102.62699890    1.73000002    2.67000008
   12.21861076  108.27200317    1.73000002    2.67000008
   12.22166634   96.48870087    1.73000002    2.67000008
   12.22499943  101.23799896    1.73000002    2.67000008
   12.22583294  100.56199646    1.73000002    2.67000008
   12.23166656  100.56199646    1.73000002    2.67000008
   12.23555565  102.97399902    1.73000002    2.67000008
   12.23888874   99.22019958    1.73000002    2.67000008
   12.24222279  100.54199982    1.73000002    2.67000008
   12.24527836  100.89600372    1.73000002    2.67000008
   12.24861145  100.16200256    1.73000002    2.67000008
   12.25194454  100.68499756    1.73000002    2.67000008
   12.25500011  102.77600098    1.73000002    2.67000008
   12.25833321   97.55860138    1.73000002    2.67000008
   12.25916672   98.91139984    1.73000002    2.67000008
   12.26194477  102.11699677    1.73000002    2.67000008
   12.26500034  105.86499786    1.73000002    2.67000008
   12.26833344  106.99199677    1.73000002    2.67000008
   12.27416611  106.99199677    1.73000002    2.67000008
   12.27833271  103.99800110    1.73000002    2.67000008
   12.28166676  100.96199799    1.73000002    2.67000008
   12.28472233  105.88200378    1.73000002    2.67000008
   12.28805637  103.11299896    1.73000002    2.67000008
   12.29138947  106.19999695    1.73000002    2.67000008
   12.29250050   99.32180023    1.73000002    2.67000008
   12.29500008   92.85399628    1.73000002    2.67000008
   12.29805565   99.97949982    1.73000002    2.67000008
   12.30138874  103.14499664    1.73000002    2.67000008
   12.30444431  109.08100128    1.73000002    2.67000008
   12.30777836   91.90180206    1.73000002    2.67000008
   12.31111145   99.27539825    1.73000002    2.67000008
   12.31694412   99.27539825    1.73000002    2.67000008
   12.32111073  102.13800049    1.73000002    2.67000008
   12.32444477   96.94270325    1.73000002    2.67000008
   12.32583332   96.86489868    1.73000002    2.67000008
   12.32805538   92.70359802    1.73000002    2.67000008
   12.33138847   89.75689697    1.73000002    2.67000008
   12.33472157   93.00620270    1.73000002    2.67000008
   12.33777714   95.72619629    1.73000002    2.67000008
   12.34111118  104.69000244    1.73000002    2.67000008
   12.34444427  100.47699738    1.73000002    2.67000008
   12.34749985  113.60500336    1.73000002    2.67000008
   12.35083389   99.29869843    1.73000002    2.67000008
   12.35388947  105.33699799    1.73000002    2.67000008
   12.36000061  105.33699799    1.73000002    2.67000008
   12.36388969  110.00199890    1.73000002    2.67000008
   12.36722279  105.67299652    1.73000002    2.67000008
   12.37055588   98.85469818    1.73000002    2.67000008
   12.37361145  103.47699738    1.73000002    2.67000008
   12.37694454  104.02400208    1.73000002    2.67000008
   12.38027763  100.64299774    1.73000002    2.67000008
   12.38361073   96.62550354    1.73000002    2.67000008
   12.38666630   96.93350220    1.73000002    2.67000008
   12.39000034  103.69999695    1.73000002    2.67000008
   12.39249992  103.09200287    1.73000002    2.67000008
   12.39361095   99.79389954    1.73000002    2.67000008
   12.39666653  103.40399933    1.73000002    2.67000008
   12.40277767  103.40399933    1.73000002    2.67000008
   12.40694427  111.01999664    1.73000002    2.67000008
   12.40999985  100.99099731    1.73000002    2.67000008
   12.41333294  106.63999939    1.73000002    2.67000008
   12.41666698  102.34899902    1.73000002    2.67000008
   12.41972256  103.86000061    1.73000002    2.67000008
   12.42305565  105.48500061    1.73000002    2.67000008
   12.42583370   99.01640320    1.73000002    2.67000008
   12.42666721   98.31539917    1.73000002    2.67000008
   12.42972279  100.09700012    1.73000002    2.67000008
   12.43305588   98.13030243    1.73000002    2.67000008
   12.43638897  103.46099854    1.73000002    2.67000008
   12.43944454  102.43699646    1.73000002    2.67000008
   12.44555569  102.43699646    1.73000002    2.67000008
   12.44972229  106.80300140    1.73000002    2.67000008
   12.45277786  103.59600067    1.73000002    2.67000008
   12.45611095  101.53700256    1.73000002    2.67000008
   12.45916653  105.37599945    1.73000002    2.67000008
   12.46000004  105.01100159    1.73000002    2.67000008
   12.46305561  101.36100006    1.73000002    2.67000008
   12.46638870  102.11900330    1.73000002    2.67000008
   12.46972179  105.88300323    1.73000002    2.67000008
   12.47277737  110.92900085    1.73000002    2.67000008
   12.47611046  105.04799652    1.73000002    2.67000008
   12.47916603  101.45200348    1.73000002    2.67000008
   12.48249912   98.62609863    1.73000002    2.67000008
   12.48833370   98.62609863    1.73000002    2.67000008
   12.49250031  109.50399780    1.73000002    2.67000008
   12.49583340  101.46900177    1.73000002    2.67000008
   12.49888897  107.17700195    1.73000002    2.67000008
   12.50222206  102.92400360    1.73000002    2.67000008
   12.50555515  111.48200226    1.73000002    2.67000008
   12.50861073  102.84600067    1.73000002    2.67000008
   12.51194477  107.49900055    1.73000002    2.67000008
   12.51500034   95.91819763    1.73000002    2.67000008
   12.51833344  103.33200073    1.73000002    2.67000008
   12.52166653  106.02300262    1.73000002    2.67000008
   12.52472210   99.37480164    1.73000002    2.67000008
   12.52583313  100.46399689    1.73000002    2.67000008
   12.54666710  100.46399689    1.73000002    2.67000008
   12.55055618  105.04100037    1.73000002    2.67000008
   12.55388927  106.77100372    1.73000002    2.67000008
   12.55722237  104.34400177    1.73000002    2.67000008
   12.55916691  100.06500244    1.73000002    2.67000008
   12.56083393   99.10330200    1.73000002    2.67000008
   12.56388950  108.76399994    1.73000002    2.67000008
   12.56722260  113.04499817    1.73000002    2.67000008
   12.57027817  107.13400269    1.73000002    2.67000008
   12.57361126  112.32900238    1.73000002    2.67000008
   12.57694435  109.45400238    1.73000002    2.67000008
   12.57999992  105.63500214    1.73000002    2.67000008
   12.58333302  111.87400055    1.73000002    2.67000008
   12.58916664  111.87400055    1.73000002    2.67000008
   12.59333324  104.44300079    1.73000002    2.67000008
   12.59666634  109.55100250    1.73000002    2.67000008
   12.60000038   97.46610260    1.73000002    2.67000008
   12.60305595  107.48699951    1.73000002    2.67000008
   12.60638905  111.62200165    1.73000002    2.67000008
   12.60944462  110.02799988    1.73000002    2.67000008
   12.61277771  107.86299896    1.73000002    2.67000008
   12.61611176  114.93099976    1.73000002    2.67000008
   12.61916637  106.37400055    1.73000002    2.67000008
   12.62250042  107.35399628    1.73000002    2.67000008
   12.62583351  106.58899689    1.73000002    2.67000008
   12.62638855  110.42700195    1.73000002    2.67000008
   12.63222218  110.42700195    1.73000002    2.67000008
   12.63638878  111.35500336    1.73000002    2.67000008
   12.63944435  105.70800018    1.73000002    2.67000008
   12.64277744  118.04399872    1.73000002    2.67000008
   12.64583302  104.94699860    1.73000002    2.67000008
   12.64916611  118.43000031    1.73000002    2.67000008
   12.65249920  113.67400360    1.73000002    2.67000008
   12.65555477  121.01200104    1.73000002    2.67000008
   12.65888882  101.69499969    1.73000002    2.67000008
   12.65972137  109.25000000    1.73000002    2.67000008
   12.66249943  110.52899933    1.73000002    2.67000008
   12.66583252  124.26999664    1.73000002    2.67000008
   12.66888905  111.61799622    1.73000002    2.67000008
   12.67500019  111.61799622    1.73000002    2.67000008
   12.67916679  113.22299957    1.73000002    2.67000008
   12.68222237  109.59999847    1.73000002    2.67000008
   12.68555546  110.16699982    1.73000002    2.67000008
   12.68888855  116.30200195    1.73000002    2.67000008
   12.69194412  109.76300049    1.73000002    2.67000008
   12.69305515  109.17700195    1.73000002    2.67000008
   12.69555569  107.13500214    1.73000002    2.67000008
   12.69888878  107.05799866    1.73000002    2.67000008
   12.70194435  113.95300293    1.73000002    2.67000008
   12.70527744  105.46299744    1.73000002    2.67000008
   12.70861053  115.00700378    1.73000002    2.67000008
   12.71166611  112.77700043    1.73000002    2.67000008
   12.71777725  112.77700043    1.73000002    2.67000008
   12.72194386  113.92500305    1.73000002    2.67000008
   12.72527695  108.35900116    1.73000002    2.67000008
   12.72638798  116.39099884    1.73000002    2.67000008
   12.72888851  104.48100281    1.73000002    2.67000008
   12.73222160  117.76000214    1.73000002    2.67000008
   12.73555565  110.01899719    1.73000002    2.67000008
   12.73861122  116.85099792    1.73000002    2.67000008
   12.74194431  110.38500214    1.73000002    2.67000008
   12.74499989  114.04399872    1.73000002    2.67000008
   12.74833393  108.16100311    1.73000002    2.67000008
   12.75166702  118.78199768    1.73000002    2.67000008
   12.75472260  113.77200317    1.73000002    2.67000008
   12.76055527  113.77200317    1.73000002    2.67000008
   12.76472187  117.14600372    1.73000002    2.67000008
   12.76805496  114.71199799    1.73000002    2.67000008
   12.77138901  125.80699921    1.73000002    2.67000008
   12.77444458  112.96600342    1.73000002    2.67000008
   12.77777767  108.65699768    1.73000002    2.67000008
   12.78111076  113.11499786    1.73000002    2.67000008
   12.78416729  111.95700073    1.73000002    2.67000008
   12.78750038  107.95200348    1.73000002    2.67000008
   12.79055595  115.90599823    1.73000002    2.67000008
   12.79305553  115.48899841    1.73000002    2.67000008
   12.79416752  117.29399872    1.73000002    2.67000008
   12.79750061  111.41400146    1.73000002    2.67000008
   12.80361176  111.41400146    1.73000002    2.67000008
   12.80749989  116.37100220    1.73000002    2.67000008
   12.81083393  107.56800079    1.73000002    2.67000008
   12.81416702  111.72399902    1.73000002    2.67000008
   12.81722260  110.90899658    1.73000002    2.67000008
   12.82055569  110.49600220    1.73000002    2.67000008
   12.82388878  110.51999664    1.73000002    2.67000008
   12.82638836  111.16200256    1.73000002    2.67000008
   12.82722187  106.80200195    1.73000002    2.67000008
   12.83055592  107.39099884    1.73000002    2.67000008
   12.83388901  110.40200043    1.73000002    2.67000008
   12.83694458  109.69200134    1.73000002    2.67000008
   12.84027767  114.19100189    1.73000002    2.67000008
   12.84638882  114.19100189    1.73000002    2.67000008
   12.85055637  114.16799927    1.73000002    2.67000008
   12.85361195  107.34300232    1.73000002    2.67000008
   12.85694504  112.50700378    1.73000002    2.67000008
   12.85972214  104.29399872    1.73000002    2.67000008
   12.86055565  114.43800354    1.73000002    2.67000008
   12.86388969  111.91899872    1.73000002    2.67000008
   12.86722279  108.29499817    1.73000002    2.67000008
   12.87027836  108.44300079    1.73000002    2.67000008
   12.87361145  112.50700378    1.73000002    2.67000008
   12.87666702  112.60099792    1.73000002    2.67000008
   12.88000011  113.55000305    1.73000002    2.67000008
   12.88333321  112.02200317    1.73000002    2.67000008
   12.88916683  112.02200317    1.73000002    2.67000008
   12.89333344  108.92800140    1.73000002    2.67000008
   12.89666653  111.50800323    1.73000002    2.67000008
   12.89972210  111.35900116    1.73000002    2.67000008
   12.90305519  116.51000214    1.73000002    2.67000008
   12.90638828  119.38500214    1.73000002    2.67000008
   12.90944386  114.16400146    1.73000002    2.67000008
   12.91277695  113.60199738    1.73000002    2.67000008
   12.91611099  106.24600220    1.73000002    2.67000008
   12.91916656  118.41000366    1.73000002    2.67000008
   12.92250061   96.27390289    1.73000002    2.67000008
   12.92555618   94.28260040    1.73000002    2.67000008
   12.92638874  106.13800049    1.73000002    2.67000008
   12.93194485  106.13800049    1.73000002    2.67000008
   12.93611145  118.08699799    1.73000002    2.67000008
   12.93944454  111.47000122    1.73000002    2.67000008
   12.94250011  108.71199799    1.73000002    2.67000008
   12.94583321  107.75099945    1.73000002    2.67000008
   12.94916630  108.79799652    1.73000002    2.67000008
   12.95249939  108.46600342    1.73000002    2.67000008
   12.95583344  103.14399719    1.73000002    2.67000008
   12.95888901   99.00679779    1.73000002    2.67000008
   12.95972157   99.17929840    1.73000002    2.67000008
   12.96277714  108.53099823    1.73000002    2.67000008
   12.96583271  103.14499664    1.73000002    2.67000008
   12.96916580  103.44499969    1.73000002    2.67000008
   12.97499943  103.44499969    1.73000002    2.67000008
   12.97916603  110.39199829    1.73000002    2.67000008
   12.98222160  108.66500092    1.73000002    2.67000008
   12.98555565   98.67710114    1.73000002    2.67000008
   12.98861122  104.63700104    1.73000002    2.67000008
   12.99194431  114.30599976    1.73000002    2.67000008
   12.99305534  114.31300354    1.73000002    2.67000008
   12.99555588  108.39600372    1.73000002    2.67000008
   12.99888897  109.29100037    1.73000002    2.67000008
   13.00222206  115.49400330    1.73000002    2.67000008
   13.00527763  108.02200317    1.73000002    2.67000008
   13.00888920  108.80000305    1.73000002    2.67000008
   13.01194477  107.90599823    1.73000002    2.67000008
   13.01777744  107.90599823    1.73000002    2.67000008
   13.02194405  109.54799652    1.73000002    2.67000008
   13.02499962  108.00599670    1.73000002    2.67000008
   13.02638817  113.56600189    1.73000002    2.67000008
   13.02861118  100.32199860    1.73000002    2.67000008
   13.03194427  116.13800049    1.73000002    2.67000008
   13.03527832  110.41500092    1.73000002    2.67000008
   13.03833389  118.31900024    1.73000002    2.67000008
   13.04166698  123.14299774    1.73000002    2.67000008
   13.04500008  111.25199890    1.73000002    2.67000008
   13.04833412  118.25199890    1.73000002    2.67000008
   13.05138874  108.27200317    1.73000002    2.67000008
   13.05472279  111.26599884    1.73000002    2.67000008
   13.06055546  111.26599884    1.73000002    2.67000008
   13.06472206  110.30200195    1.73000002    2.67000008
   13.06805515  111.95300293    1.73000002    2.67000008
   13.07111073  111.66200256    1.73000002    2.67000008
   13.07444477  118.06600189    1.73000002    2.67000008
   13.07777786  108.35800171    1.73000002    2.67000008
   13.08083344  115.36699677    1.73000002    2.67000008
   13.08416653  115.15799713    1.73000002    2.67000008
   13.08722210  110.96600342    1.73000002    2.67000008
   13.09055519   85.71479797    1.73000002    2.67000008
   13.09305477  117.29000092    1.73000002    2.67000008
   13.09416676  107.61599731    1.73000002    2.67000008
   13.09749985  113.36000061    1.73000002    2.67000008
   13.10333347  113.36000061    1.73000002    2.67000008
   13.10750008  110.23300171    1.73000002    2.67000008
   13.11083412  110.98799896    1.73000002    2.67000008
   13.11388969  112.47899628    1.73000002    2.67000008
   13.11722279  119.57099915    1.73000002    2.67000008
   13.12055588  115.76100159    1.73000002    2.67000008
   13.12361145  114.62699890    1.73000002    2.67000008
   13.12638855  113.11900330    1.73000002    2.67000008
   13.12722206  116.91899872    1.73000002    2.67000008
   13.13055611  111.65699768    1.73000002    2.67000008
   13.13388920  121.12200165    1.73000002    2.67000008
   13.13722229  117.37599945    1.73000002    2.67000008
   13.14027786  120.34600067    1.73000002    2.67000008
   13.14638901  120.34600067    1.73000002    2.67000008
   13.15055561  112.85399628    1.73000002    2.67000008
   13.15361118  118.95200348    1.73000002    2.67000008
   13.15694427  116.94799805    1.73000002    2.67000008
   13.15972137  108.18000031    1.73000002    2.67000008
   13.16027737  113.51100159    1.73000002    2.67000008
   13.16361046   92.90440369    1.73000002    2.67000008
   13.16694450  111.21499634    1.73000002    2.67000008
   13.17000008  107.12999725    1.73000002    2.67000008
   13.17333412  110.80799866    1.73000002    2.67000008
   13.17666721  115.51899719    1.73000002    2.67000008
   13.17972279  124.71700287    1.73000002    2.67000008
   13.18305588  114.45400238    1.73000002    2.67000008
   13.18916702  114.45400238    1.73000002    2.67000008
   13.19333363  102.99700165    1.73000002    2.67000008
   13.19638920  104.71499634    1.73000002    2.67000008
   13.19972229  105.70099640    1.73000002    2.67000008
   13.20305538  104.92600250    1.73000002    2.67000008
   13.20611095  107.43499756    1.73000002    2.67000008
   13.20944405  103.85199738    1.73000002    2.67000008
   13.21277714  103.65200043    1.73000002    2.67000008
   13.21583271  103.32099915    1.73000002    2.67000008
   13.21916580  111.90799713    1.73000002    2.67000008
   13.22249985   98.11830139    1.73000002    2.67000008
   13.22555542  103.49400330    1.73000002    2.67000008
   13.22638798  109.46399689    1.73000002    2.67000008
   13.23194408  109.46399689    1.73000002    2.67000008
   13.23611164  106.54000092    1.73000002    2.67000008
   13.23944473  105.59100342    1.73000002    2.67000008
   13.24250031  107.36499786    1.73000002    2.67000008
   13.24583340  110.32099915    1.73000002    2.67000008
   13.24888897  109.12100220    1.73000002    2.67000008
   13.25222206  112.27100372    1.73000002    2.67000008
   13.25555515   98.26599884    1.73000002    2.67000008
   13.25861073  109.12699890    1.73000002    2.67000008
   13.25972176  106.80100250    1.73000002    2.67000008
   13.26249981  107.11000061    1.73000002    2.67000008
   13.26555538   98.45629883    1.73000002    2.67000008
   13.26888847   84.09799957    1.73000002    2.67000008
   13.27472210   84.09799957    1.73000002    2.67000008
   13.27888870  104.68399811    1.73000002    2.67000008
   13.28222179   98.12390137    1.73000002    2.67000008
   13.28555584   92.06300354    1.73000002    2.67000008
   13.28861141  103.62999725    1.73000002    2.67000008
   13.29194450  107.40499878    1.73000002    2.67000008
   13.29305553  102.72799683    1.73000002    2.67000008
   13.29555607   99.02040100    1.73000002    2.67000008
   13.29861164   94.56109619    1.73000002    2.67000008
   13.30194473  100.18599701    1.73000002    2.67000008
   13.30500031  109.54699707    1.73000002    2.67000008
   13.30833340  102.88200378    1.73000002    2.67000008
   13.31166649  103.34999847    1.73000002    2.67000008
   13.31777763  103.34999847    1.73000002    2.67000008
   13.32166672  104.89900208    1.73000002    2.67000008
   13.32499981  108.33699799    1.73000002    2.67000008
   13.32638836   97.98300171    1.73000002    2.67000008
   13.32888889  107.25800323    1.73000002    2.67000008
   13.33194447  107.74700165    1.73000002    2.67000008
   13.33527756  101.96099854    1.73000002    2.67000008
   13.33833313   91.61589813    1.73000002    2.67000008
   13.34166622  106.77100372    1.73000002    2.67000008
   13.34499931  102.89099884    1.73000002    2.67000008
   13.34805489  104.46199799    1.73000002    2.67000008
   13.35138893  104.87400055    1.73000002    2.67000008
   13.35472298  104.51399994    1.73000002    2.67000008
   13.36055565  104.51399994    1.73000002    2.67000008
   13.36472225  107.80300140    1.73000002    2.67000008
   13.36777782  100.73000336    1.73000002    2.67000008
   13.37111092  107.97699738    1.73000002    2.67000008
   13.37444496  100.55999756    1.73000002    2.67000008
   13.37750053  107.53600311    1.73000002    2.67000008
   13.38083363  108.08200073    1.73000002    2.67000008
   13.38416672  107.24600220    1.73000002    2.67000008
   13.38722229  108.72599792    1.73000002    2.67000008
   13.39055538  104.90100098    1.73000002    2.67000008
   13.39305496  113.12699890    1.73000002    2.67000008
   13.39416695  102.21800232    1.73000002    2.67000008
   13.39722252  105.83300018    1.73000002    2.67000008
   13.40333271  105.83300018    1.73000002    2.67000008
   13.40749931  110.21399689    1.73000002    2.67000008
   13.41083336  109.58499908    1.73000002    2.67000008
   13.41388893  111.63999939    1.73000002    2.67000008
   13.41722298  111.88899994    1.73000002    2.67000008
   13.42055607  110.78399658    1.73000002    2.67000008
   13.42361164  108.11000061    1.73000002    2.67000008
   13.42638874  112.26899719    1.73000002    2.67000008
   13.42750072  105.71499634    1.73000002    2.67000008
   13.43055630  107.22299957    1.73000002    2.67000008
   13.43388939  105.45899963    1.73000002    2.67000008
   13.43694496  101.92600250    1.73000002    2.67000008
   13.44027805   98.90429688    1.73000002    2.67000008
   13.44611073   98.90429688    1.73000002    2.67000008
   13.45027733  103.94100189    1.73000002    2.67000008
   13.45361137  107.00800323    1.73000002    2.67000008
   13.45666695  106.39099884    1.73000002    2.67000008
   13.45972157  113.20600128    1.73000002    2.67000008
   13.46055508  108.68099976    1.73000002    2.67000008
   13.46361065  113.80400085    1.73000002    2.67000008
   13.46694374  108.71199799    1.73000002    2.67000008
   13.46999931  116.03399658    1.73000002    2.67000008
   13.47333336  107.51799774    1.73000002    2.67000008
   13.47666645  111.13899994    1.73000002    2.67000008
   13.47972202  107.28600311    1.73000002    2.67000008
   13.48305511  108.93399811    1.73000002    2.67000008
   13.48916721  108.93399811    1.73000002    2.67000008
   13.49305534  117.53500366    1.73000002    2.67000008
   13.49638939  117.12699890    1.73000002    2.67000008
   13.49972248  116.16799927    1.73000002    2.67000008
   13.50277805   94.38179779    1.73000002    2.67000008
   13.50611115  103.67099762    1.73000002    2.67000008
   13.50944424  112.97299957    1.73000002    2.67000008
   13.51249981  107.21600342    1.73000002    2.67000008
   13.51583290  107.22200012    1.73000002    2.67000008
   13.51888847  108.70200348    1.73000002    2.67000008
   13.52222157  105.49700165    1.73000002    2.67000008
   13.52555561  107.33999634    1.73000002    2.67000008
   13.52638817  113.01599884    1.73000002    2.67000008
   13.53194427  113.01599884    1.73000002    2.67000008
   13.53611183  104.70800018    1.73000002    2.67000008
   13.53916740  111.98100281    1.73000002    2.67000008
   13.54250050  119.12599945    1.73000002    2.67000008
   13.56000042  109.55100250    1.73000002    2.67000008
   13.56250000  116.45400238    1.73000002    2.67000008
   13.56583309  108.29299927    1.73000002    2.67000008
   13.56888866  110.89700317    1.73000002    2.67000008
   13.57499981  110.89700317    1.73000002    2.67000008
   13.57916641   95.13220215    1.73000002    2.67000008
   13.58222198  100.72899628    1.73000002    2.67000008
   13.58555508  106.51599884    1.73000002    2.67000008
   13.58888817  101.74199677    1.73000002    2.67000008
   13.59194374  106.51100159    1.73000002    2.67000008
   13.59333324  102.59100342    1.73000002    2.67000008
   13.59583282  100.31400299    1.73000002    2.67000008
   13.59888840  109.21099854    1.73000002    2.67000008
   13.60222244  112.77799988    1.73000002    2.67000008
   13.60527802  107.45099640    1.73000002    2.67000008
   13.60861111  110.00399780    1.73000002    2.67000008
   13.61194515   99.22769928    1.73000002    2.67000008
   13.61777782   99.22769928    1.73000002    2.67000008
   13.62194443  102.30999756    1.73000002    2.67000008
   13.62500000  104.68000031    1.73000002    2.67000008
   13.62666702  102.02700043    1.73000002    2.67000008
   13.62888908  101.41600037    1.73000002    2.67000008
   13.63194466  105.97299957    1.73000002    2.67000008
   13.63527775  113.12599945    1.73000002    2.67000008
   13.63861084  113.32700348    1.73000002    2.67000008
   13.64166641  109.18399811    1.73000002    2.67000008
   13.64499950  114.56600189    1.73000002    2.67000008
   13.64833355  108.78299713    1.73000002    2.67000008
   13.65138817  106.67500305    1.73000002    2.67000008
   13.65472221  114.83799744    1.73000002    2.67000008
   13.66083336  114.83799744    1.73000002    2.67000008
   13.66499996  112.05899811    1.73000002    2.67000008
   13.66805553  106.14199829    1.73000002    2.67000008
   13.67138958  116.90200043    1.73000002    2.67000008
   13.67444515  114.46399689    1.73000002    2.67000008
   13.67777824  104.91300201    1.73000002    2.67000008
   13.68111134  111.47200012    1.73000002    2.67000008
   13.68416691  107.23999786    1.73000002    2.67000008
   13.68750000  108.67900085    1.73000002    2.67000008
   13.69083309  116.40100098    1.73000002    2.67000008
   13.69333363   96.12100220    1.73000002    2.67000008
   13.69444466  100.40499878    1.73000002    2.67000008
   13.69750023  110.30599976    1.73000002    2.67000008
   13.70333290  110.30599976    1.73000002    2.67000008
   13.70749950  114.10700226    1.73000002    2.67000008
   13.71083355  112.09500122    1.73000002    2.67000008
   13.71416664  109.29799652    1.73000002    2.67000008
   13.71722221  114.62100220    1.73000002    2.67000008
   13.72055531  108.51699829    1.73000002    2.67000008
   13.72361088  113.70300293    1.73000002    2.67000008
   13.72666645  107.77600098    1.73000002    2.67000008
   13.72749996  112.14800262    1.73000002    2.67000008
   13.73055553  109.80500031    1.73000002    2.67000008
   13.73388958   91.97290039    1.73000002    2.67000008
   13.73722267  103.84200287    1.73000002    2.67000008
   13.74027824  106.69699860    1.73000002    2.67000008
   13.74638939  106.69699860    1.73000002    2.67000008
   13.75055599  110.17199707    1.73000002    2.67000008
   13.75361156  107.23799896    1.73000002    2.67000008
   13.75694466  117.97100067    1.73000002    2.67000008
   13.76000023  105.93099976    1.73000002    2.67000008
   13.76055527  105.60500336    1.73000002    2.67000008
   13.76361084  103.37300110    1.73000002    2.67000008
   13.76694393  114.21600342    1.73000002    2.67000008
   13.77027798  111.43599701    1.73000002    2.67000008
   13.77333355  118.22000122    1.73000002    2.67000008
   13.77666664  112.70500183    1.73000002    2.67000008
   13.77972221  107.90299988    1.73000002    2.67000008
   13.78305531  109.74400330    1.73000002    2.67000008
   13.78916740  109.74400330    1.73000002    2.67000008
   13.79333401  108.12200165    1.73000002    2.67000008
   13.79388905  108.96800232    1.73000002    2.67000008
   13.79694462  109.99099731    1.73000002    2.67000008
   13.80027771  107.33000183    1.73000002    2.67000008
   13.80361176  106.51200104    1.73000002    2.67000008
   13.80666733  111.18299866    1.73000002    2.67000008
   13.81000042  106.21600342    1.73000002    2.67000008
   13.81333351  108.85099792    1.73000002    2.67000008
   13.81638908  112.41500092    1.73000002    2.67000008
   13.81972218  114.28500366    1.73000002    2.67000008
   13.82277775  110.61000061    1.73000002    2.67000008
   13.82611084  109.37699890    1.73000002    2.67000008
   13.82666683  108.39600372    1.73000002    2.67000008
   13.83194447  108.39600372    1.73000002    2.67000008
   13.83611107  111.56099701    1.73000002    2.67000008
   13.83944416  110.96099854    1.73000002    2.67000008
   13.84249973  114.25499725    1.73000002    2.67000008
   13.84583282  112.33300018    1.73000002    2.67000008
   13.84888840  117.18900299    1.73000002    2.67000008
   13.85222244  108.10399628    1.73000002    2.67000008
   13.85555553  115.53199768    1.73000002    2.67000008
   13.85861111  112.21600342    1.73000002    2.67000008
   13.86000061  111.86699677    1.73000002    2.67000008
   13.86250019  110.76699829    1.73000002    2.67000008
   13.86555576  112.16600037    1.73000002    2.67000008
   13.86888885  123.19100189    1.73000002    2.67000008
   13.87472248  123.19100189    1.73000002    2.67000008
   13.87888908  114.24700165    1.73000002    2.67000008
   13.88222218  101.44699860    1.73000002    2.67000008
   13.88527775  117.77200317    1.73000002    2.67000008
   13.88861084  120.64299774    1.73000002    2.67000008
   13.89194393  112.89800262    1.73000002    2.67000008
   13.89333344  108.82399750    1.73000002    2.67000008
   13.89555550  111.57599640    1.73000002    2.67000008
   13.89861107  113.32900238    1.73000002    2.67000008
   13.90194416  110.64499664    1.73000002    2.67000008
   13.90527725  108.03700256    1.73000002    2.67000008
   13.90833282  109.11299896    1.73000002    2.67000008
   13.91166592  114.94499969    1.73000002    2.67000008
   13.91777802  114.94499969    1.73000002    2.67000008
   13.92194462  110.57700348    1.73000002    2.67000008
   13.92500019  111.98300171    1.73000002    2.67000008
   13.92666721  111.73200226    1.73000002    2.67000008
   13.92888927  105.63500214    1.73000002    2.67000008
   13.93194485  109.55899811    1.73000002    2.67000008
   13.93527794  116.04799652    1.73000002    2.67000008
   13.93861103  111.92500305    1.73000002    2.67000008
   13.94166660  109.54599762    1.73000002    2.67000008
   13.94499969  114.97100067    1.73000002    2.67000008
   13.94833374  112.97200012    1.73000002    2.67000008
   13.95138836  111.79399872    1.73000002    2.67000008
   13.95472240  114.69000244    1.73000002    2.67000008
   13.96055508  114.69000244    1.73000002    2.67000008
   13.96472168  113.28500366    1.73000002    2.67000008
   13.96777725  110.69899750    1.73000002    2.67000008
   13.97111034  110.13600159    1.73000002    2.67000008
   13.97444439  106.38099670    1.73000002    2.67000008
   13.97749996  108.11599731    1.73000002    2.67000008
   13.98083305  110.50000000    1.73000002    2.67000008
   13.98416710  110.52999878    1.73000002    2.67000008
   13.98722267  109.87799835    1.73000002    2.67000008
   13.99055576  108.15799713    1.73000002    2.67000008
   13.99333382  111.05400085    1.73000002    2.67000008
   13.99416733  116.88600159    1.73000002    2.67000008
   13.99722290  109.74500275    1.73000002    2.67000008
   14.00333309  109.74500275    1.73000002    2.67000008
   14.00749969  119.26899719    1.73000002    2.67000008
   14.01083374  109.48200226    1.73000002    2.67000008
   14.01388931  114.24099731    1.73000002    2.67000008
   14.01722240  107.39399719    1.73000002    2.67000008
   14.02027798  108.54900360    1.73000002    2.67000008
   14.02361107  102.37200165    1.73000002    2.67000008
   14.02666664  109.05300140    1.73000002    2.67000008
   14.02722168  111.83000183    1.73000002    2.67000008
   14.03027725  109.33499908    1.73000002    2.67000008
   14.03361130  109.89600372    1.73000002    2.67000008
   14.03694534  108.52700043    1.73000002    2.67000008
   14.04000092  110.42600250    1.73000002    2.67000008
   14.04611111  110.42600250    1.73000002    2.67000008
   14.05027771  106.37999725    1.73000002    2.67000008
   14.05361176  113.19999695    1.73000002    2.67000008
   14.05666733  111.62300110    1.73000002    2.67000008
   14.06000042  107.77899933    1.73000002    2.67000008
   14.06055546  105.71399689    1.73000002    2.67000008
   14.06361103  106.46399689    1.73000002    2.67000008
   14.06694412  105.36100006    1.73000002    2.67000008
   14.07027817   98.57080078    1.73000002    2.67000008
   14.07333374  109.64700317    1.73000002    2.67000008
   14.07666683  102.08200073    1.73000002    2.67000008
   14.07999992  108.82599640    1.73000002    2.67000008
   14.08305550  100.15699768    1.73000002    2.67000008
   14.08916664  100.15699768    1.73000002    2.67000008
   14.09305477  106.64600372    1.73000002    2.67000008
   14.09361076  104.67700195    1.73000002    2.67000008
   14.09694386  108.06600189    1.73000002    2.67000008
   14.10027790  109.67099762    1.73000002    2.67000008
   14.10333347  109.43699646    1.73000002    2.67000008
   14.10666752   99.64099884    1.73000002    2.67000008
   14.11000061  110.15699768    1.73000002    2.67000008
   14.11305618  112.24400330    1.73000002    2.67000008
   14.11638927  104.49199677    1.73000002    2.67000008
   14.11944485  107.85600281    1.73000002    2.67000008
   14.12277794  109.65299988    1.73000002    2.67000008
   14.12611103  108.41100311    1.73000002    2.67000008
   14.12694454  114.23600006    1.73000002    2.67000008
   14.13194466  114.23600006    1.73000002    2.67000008
   14.13611126  110.64600372    1.73000002    2.67000008
   14.13916683  110.04199982    1.73000002    2.67000008
   14.14249992  103.44499969    1.73000002    2.67000008
   14.14583302  107.88200378    1.73000002    2.67000008
   14.14888859  101.75499725    1.73000002    2.67000008
   14.15222168  102.66799927    1.73000002    2.67000008
   14.15555477  112.52700043    1.73000002    2.67000008
   14.15861034  111.43499756    1.73000002    2.67000008
   14.16027737  103.06400299    1.73000002    2.67000008
   14.16222191  106.64199829    1.73000002    2.67000008
   14.16555500  106.54900360    1.73000002    2.67000008
   14.16861153  108.37100220    1.73000002    2.67000008
   14.17472267  108.37100220    1.73000002    2.67000008
   14.17888927  107.77999878    1.73000002    2.67000008
   14.18222237  109.85800171    1.73000002    2.67000008
   14.18527794  104.37999725    1.73000002    2.67000008
   14.18861103  113.18000031    1.73000002    2.67000008
   14.19166660   99.58209991    1.73000002    2.67000008
   14.19361115  102.88999939    1.73000002    2.67000008
   14.19527817  111.26599884    1.73000002    2.67000008
   14.19861126  113.40499878    1.73000002    2.67000008
   14.20166683  119.94300079    1.73000002    2.67000008
   14.20499992  117.16799927    1.73000002    2.67000008
   14.20833302  113.61699677    1.73000002    2.67000008
   14.21138859  109.76200104    1.73000002    2.67000008
   14.21749973  109.76200104    1.73000002    2.67000008
   14.22166634  107.87500000    1.73000002    2.67000008
   14.22499943   98.57579803    1.73000002    2.67000008
   14.22722149  117.87799835    1.73000002    2.67000008
   14.22861099  104.91300201    1.73000002    2.67000008
   14.23194408  106.29000092    1.73000002    2.67000008
   14.23500061  110.98100281    1.73000002    2.67000008
   14.23833370  106.26999664    1.73000002    2.67000008
   14.24166679  101.88899994    1.73000002    2.67000008
   14.24472237  116.07900238    1.73000002    2.67000008
   14.24805546  105.37899780    1.73000002    2.67000008
   14.25138855  112.46299744    1.73000002    2.67000008
   14.25444412   95.55090332    1.73000002    2.67000008
   14.26055527   95.55090332    1.73000002    2.67000008
   14.26472187   93.24459839    1.73000002    2.67000008
   14.26777744   97.33570099    1.73000002    2.67000008
   14.27111053   98.20629883    1.73000002    2.67000008
   14.27416611   90.47979736    1.73000002    2.67000008
   14.27750015  101.32399750    1.73000002    2.67000008
   14.28083324   99.26129913    1.73000002    2.67000008
   14.28388977   99.87460327    1.73000002    2.67000008
   14.28722286   99.18039703    1.73000002    2.67000008
   14.29055595   88.73390198    1.73000002    2.67000008
   14.29361153   95.10469818    1.73000002    2.67000008
   14.29416752   94.67269897    1.73000002    2.67000008
   14.29750061   97.29370117    1.73000002    2.67000008
   14.30333328   97.29370117    1.73000002    2.67000008
   14.30749989   95.49410248    1.73000002    2.67000008
   14.31055546   97.45169830    1.73000002    2.67000008
   14.31388950   97.38829803    1.73000002    2.67000008
   14.31722260   98.96140289    1.73000002    2.67000008
   14.32027817   93.37370300    1.73000002    2.67000008
   14.32361126   94.72630310    1.73000002    2.67000008
   14.32666683  100.59700012    1.73000002    2.67000008
   14.32722187   98.04290009    1.73000002    2.67000008
   14.33055592  101.08100128    1.73000002    2.67000008
   14.33388901   93.01979828    1.73000002    2.67000008
   14.33694458   98.67919922    1.73000002    2.67000008
   14.34027767   98.14279938    1.73000002    2.67000008
   14.34611034   98.14279938    1.73000002    2.67000008
   14.35027790  103.37100220    1.73000002    2.67000008
   14.35361195   93.60449982    1.73000002    2.67000008
   14.35666752   93.58920288    1.73000002    2.67000008
   14.36000061   97.23439789    1.73000002    2.67000008
   14.36083412  110.79900360    1.73000002    2.67000008
   14.36388969   91.82510376    1.73000002    2.67000008
   14.36694431  101.08100128    1.73000002    2.67000008
   14.37027836  101.94699860    1.73000002    2.67000008
   14.37361145   98.02960205    1.73000002    2.67000008
   14.37666702  103.95400238    1.73000002    2.67000008
   14.38000011  107.60800171    1.73000002    2.67000008
   14.38305569   97.52429962    1.73000002    2.67000008
   14.38888836   97.52429962    1.73000002    2.67000008
   14.39305496  105.32099915    1.73000002    2.67000008
   14.39388847  101.58899689    1.73000002    2.67000008
   14.39666653   98.37449646    1.73000002    2.67000008
   14.39999962   98.54239655    1.73000002    2.67000008
   14.40305519  107.20400238    1.73000002    2.67000008
   14.40638828  101.91999817    1.73000002    2.67000008
   14.40972137  103.05200195    1.73000002    2.67000008
   14.41277695  105.12400055    1.73000002    2.67000008
   14.41611099  106.34200287    1.73000002    2.67000008
   14.41916656  104.23200226    1.73000002    2.67000008
   14.42250061  103.05500031    1.73000002    2.67000008
   14.42583370  103.54699707    1.73000002    2.67000008
   14.42722225  100.94799805    1.73000002    2.67000008
   14.43194485  100.94799805    1.73000002    2.67000008
   14.43583298  104.59999847    1.73000002    2.67000008
   14.43916702  108.60900116    1.73000002    2.67000008
   14.44250011  103.65799713    1.73000002    2.67000008
   14.44555569  103.61900330    1.73000002    2.67000008
   14.44888878  111.18800354    1.73000002    2.67000008
   14.45222187  112.70500183    1.73000002    2.67000008
   14.45527744  105.41100311    1.73000002    2.67000008
   14.45861053  105.82199860    1.73000002    2.67000008
   14.46055508  108.17700195    1.73000002    2.67000008
   14.46222210  103.79499817    1.73000002    2.67000008
   14.46555519  103.46399689    1.73000002    2.67000008
   14.46861076  100.65499878    1.73000002    2.67000008
   14.47472191  100.65499878    1.73000002    2.67000008
   14.47888851  101.80000305    1.73000002    2.67000008
   14.48194408  105.87200165    1.73000002    2.67000008
   14.48527813  111.79799652    1.73000002    2.67000008
   14.48861122  103.74900055    1.73000002    2.67000008
   14.49166679  102.51499939    1.73000002    2.67000008
   14.49388885   96.85540009    1.73000002    2.67000008
   14.49527836  102.87899780    1.73000002    2.67000008
   14.49861145  101.74500275    1.73000002    2.67000008
   14.50166702  104.02700043    1.73000002    2.67000008
   14.50500011  103.02300262    1.73000002    2.67000008
   14.50833321  105.47100067    1.73000002    2.67000008
   14.51138878  102.24299622    1.73000002    2.67000008
   14.51749992  102.24299622    1.73000002    2.67000008
   14.52166653   99.24739838    1.73000002    2.67000008
   14.52499962  105.05999756    1.73000002    2.67000008
   14.52722168   96.44270325    1.73000002    2.67000008
   14.52861118   99.56390381    1.73000002    2.67000008
   14.53194427  108.14099884    1.73000002    2.67000008
   14.53500080  106.23200226    1.73000002    2.67000008
   14.53833389  108.26200104    1.73000002    2.67000008
   14.54166698  107.47299957    1.73000002    2.67000008
   14.54472256  103.61199951    1.73000002    2.67000008
   14.54805565  110.72100067    1.73000002    2.67000008
   14.55138874  102.07900238    1.73000002    2.67000008
   14.55444431  108.29100037    1.73000002    2.67000008
   14.56027794  108.29100037    1.73000002    2.67000008
   14.57861137  106.19400024    1.73000002    2.67000008
   14.58194447  103.06900024    1.73000002    2.67000008
   14.58527756  102.35800171    1.73000002    2.67000008
   14.58833313  105.23000336    1.73000002    2.67000008
   14.59166622  100.63700104    1.73000002    2.67000008
   14.59499931   99.62819672    1.73000002    2.67000008
   14.59805489  102.52100372    1.73000002    2.67000008
   14.60333347  102.52100372    1.73000002    2.67000008
   14.60750008  104.93900299    1.73000002    2.67000008
   14.61083412  100.38400269    1.73000002    2.67000008
   14.61166668  101.78099823    1.73000002    2.67000008
   14.61444473  100.81099701    1.73000002    2.67000008
   14.61777782   97.02980042    1.73000002    2.67000008
   14.62083340  100.96199799    1.73000002    2.67000008
   14.62416649  105.06700134    1.73000002    2.67000008
   14.62750053  108.12100220    1.73000002    2.67000008
   14.63055611  108.03399658    1.73000002    2.67000008
   14.63388920  101.91300201    1.73000002    2.67000008
   14.63722229  113.61000061    1.73000002    2.67000008
   14.64027786   98.41230011    1.73000002    2.67000008
   14.64638901   98.41230011    1.73000002    2.67000008
   14.65055561  106.35299683    1.73000002    2.67000008
   14.65361118  107.43699646    1.73000002    2.67000008
   14.65694427  112.88400269    1.73000002    2.67000008
   14.65999985  112.69100189    1.73000002    2.67000008
   14.66333294  117.58200073    1.73000002    2.67000008
   14.66666698  108.75000000    1.73000002    2.67000008
   14.66972256  109.32399750    1.73000002    2.67000008
   14.67305565  106.17400360    1.73000002    2.67000008
   14.67638874  107.65499878    1.73000002    2.67000008
   14.67861176  101.56199646    1.73000002    2.67000008
   14.67972279  116.00900269    1.73000002    2.67000008
   14.68305588  107.14099884    1.73000002    2.67000008
   14.68916702  107.14099884    1.73000002    2.67000008
   14.69333363  106.82199860    1.73000002    2.67000008
   14.69638920  109.27500153    1.73000002    2.67000008
   14.69972229  108.40100098    1.73000002    2.67000008
   14.70305538  104.80999756    1.73000002    2.67000008
   14.70611095  103.30599976    1.73000002    2.67000008
   14.70944405  106.07499695    1.73000002    2.67000008
   14.71194458  109.11199951    1.73000002    2.67000008
   14.71305561  108.90200043    1.73000002    2.67000008
   14.71638870  105.72299957    1.73000002    2.67000008
   14.71972179  101.00900269    1.73000002    2.67000008
   14.72277737  108.62100220    1.73000002    2.67000008
   14.72611046  101.19000244    1.73000002    2.67000008
   14.73194408  101.19000244    1.73000002    2.67000008
   14.73611164  102.76999664    1.73000002    2.67000008
   14.73944473  102.55400085    1.73000002    2.67000008
   14.74250031  108.10500336    1.73000002    2.67000008
   14.74527836  110.27799988    1.73000002    2.67000008
   14.74611092  105.59999847    1.73000002    2.67000008
   14.74944496  113.47899628    1.73000002    2.67000008
   14.75277805  106.38099670    1.73000002    2.67000008
   14.75583363  121.53199768    1.73000002    2.67000008
   14.75916672  115.89900208    1.73000002    2.67000008
   14.76222229  117.69899750    1.73000002    2.67000008
   14.76555538  113.12999725    1.73000002    2.67000008
   14.76888847  113.34400177    1.73000002    2.67000008
   14.77472210  113.34400177    1.73000002    2.67000008
   14.77888870  107.37799835    1.73000002    2.67000008
   14.78222179  110.12799835    1.73000002    2.67000008
   14.78555584  110.24099731    1.73000002    2.67000008
   14.78861141  113.75299835    1.73000002    2.67000008
   14.79194450  117.77899933    1.73000002    2.67000008
   14.79500008  112.91400146    1.73000002    2.67000008
   14.79833412  123.52600098    1.73000002    2.67000008
   14.80166721  109.27700043    1.73000002    2.67000008
   14.80472279  113.83200073    1.73000002    2.67000008
   14.80805588  110.18099976    1.73000002    2.67000008
   14.81138897  104.89399719    1.73000002    2.67000008
   14.81194496  109.07399750    1.73000002    2.67000008
   14.81777763  109.07399750    1.73000002    2.67000008
   14.82194424  100.44999695    1.73000002    2.67000008
   14.82499981  104.20800018    1.73000002    2.67000008
   14.82833290  113.00099945    1.73000002    2.67000008
   14.83166695  112.24400330    1.73000002    2.67000008
   14.83472157  114.77799988    1.73000002    2.67000008
   14.83805561  115.34400177    1.73000002    2.67000008
   14.84138870  115.73799896    1.73000002    2.67000008
   14.84444427  112.82399750    1.73000002    2.67000008
   14.84527779  111.11000061    1.73000002    2.67000008
   14.84805489  115.27999878    1.73000002    2.67000008
   14.85138893  106.16999817    1.73000002    2.67000008
   14.85472298  115.99600220    1.73000002    2.67000008
   14.86055565  115.99600220    1.73000002    2.67000008
   14.86472225  111.83699799    1.73000002    2.67000008
   14.86805534  111.76100159    1.73000002    2.67000008
   14.87111092  104.45899963    1.73000002    2.67000008
   14.87444496  106.79199982    1.73000002    2.67000008
   14.87750053  105.62599945    1.73000002    2.67000008
   14.87861156  113.50800323    1.73000002    2.67000008
   14.88111115  111.02999878    1.73000002    2.67000008
   14.88444424   98.89610291    1.73000002    2.67000008
   14.88777733  108.76799774    1.73000002    2.67000008
   14.89083290  111.83000183    1.73000002    2.67000008
   14.89416695  110.98600006    1.73000002    2.67000008
   14.89722252  107.91300201    1.73000002    2.67000008
   14.90333271  107.91300201    1.73000002    2.67000008
   14.90749931  101.89299774    1.73000002    2.67000008
   14.91083336  104.63899994    1.73000002    2.67000008
   14.91194439  100.25900269    1.73000002    2.67000008
   14.91416645  105.63899994    1.73000002    2.67000008
   14.91750050  114.13300323    1.73000002    2.67000008
   14.92083359  101.77999878    1.73000002    2.67000008
   14.92388916  111.19999695    1.73000002    2.67000008
   14.92722225  110.19400024    1.73000002    2.67000008
   14.93027782  113.87200165    1.73000002    2.67000008
   14.93361092  110.51599884    1.73000002    2.67000008
   14.93694496   90.95200348    1.73000002    2.67000008
   14.94000053  106.60700226    1.73000002    2.67000008
   14.94611073  106.60700226    1.73000002    2.67000008
   14.95027733  105.98600006    1.73000002    2.67000008
   14.95361137  109.73799896    1.73000002    2.67000008
   14.95694447  109.48400116    1.73000002    2.67000008
   14.96000004  103.31300354    1.73000002    2.67000008
   14.96333313  109.06999969    1.73000002    2.67000008
   14.96666622  107.93099976    1.73000002    2.67000008
   14.96972179   98.42569733    1.73000002    2.67000008
   14.97305489  110.51999664    1.73000002    2.67000008
   14.97611046  110.02500153    1.73000002    2.67000008
   14.97861099  113.42600250    1.73000002    2.67000008
   14.97972202  108.26000214    1.73000002    2.67000008
   14.98305511  103.14800262    1.73000002    2.67000008
   14.98916721  103.14800262    1.73000002    2.67000008
   14.99333382  104.22299957    1.73000002    2.67000008
   14.99638939  105.85299683    1.73000002    2.67000008
   14.99972248  105.78800201    1.73000002    2.67000008
   15.00305557  108.37400055    1.73000002    2.67000008
   15.00611115  111.66699982    1.73000002    2.67000008
   15.00944424  114.03900146    1.73000002    2.67000008
   15.01194477  109.73300171    1.73000002    2.67000008
   15.01305580  112.31999969    1.73000002    2.67000008
   15.01638889  110.88500214    1.73000002    2.67000008
   15.01972198  113.94300079    1.73000002    2.67000008
   15.02277756  107.97699738    1.73000002    2.67000008
   15.02611065  115.18399811    1.73000002    2.67000008
   15.03194427  115.18399811    1.73000002    2.67000008
   15.03611183  108.95400238    1.73000002    2.67000008
   15.03916740  108.69300079    1.73000002    2.67000008
   15.04250050  110.88099670    1.73000002    2.67000008
   15.04527855  110.10500336    1.73000002    2.67000008
   15.04611111  106.15200043    1.73000002    2.67000008
   15.04944515  109.81800079    1.73000002    2.67000008
   15.05277824  106.75800323    1.73000002    2.67000008
   15.05583382  105.16000366    1.73000002    2.67000008
   15.05916691  108.25000000    1.73000002    2.67000008
   15.06250000  107.19200134    1.73000002    2.67000008
   15.06555557  105.82199860    1.73000002    2.67000008
   15.06888866  105.41699982    1.73000002    2.67000008
   15.07472229  105.41699982    1.73000002    2.67000008
   15.07888889  116.30400085    1.73000002    2.67000008
   15.08222198  106.84100342    1.73000002    2.67000008
   15.08555508  108.44599915    1.73000002    2.67000008
   15.08861065  112.96099854    1.73000002    2.67000008
   15.09194374  111.44699860    1.73000002    2.67000008
   15.09499931  112.10399628    1.73000002    2.67000008
   15.09833336  108.38099670    1.73000002    2.67000008
   15.10166740  111.53900146    1.73000002    2.67000008
   15.10472298  111.63800049    1.73000002    2.67000008
   15.10805607  108.02700043    1.73000002    2.67000008
   15.11138916  108.93399811    1.73000002    2.67000008
   15.11194515  114.49400330    1.73000002    2.67000008
   15.11750031  114.49400330    1.73000002    2.67000008
   15.12166691  110.98600006    1.73000002    2.67000008
   15.12500000  108.87500000    1.73000002    2.67000008
   15.12833309  110.43199921    1.73000002    2.67000008
   15.13138866  108.14800262    1.73000002    2.67000008
   15.13472176  108.86900330    1.73000002    2.67000008
   15.13777733  115.17800140    1.73000002    2.67000008
   15.14111137  105.37699890    1.73000002    2.67000008
   15.14444447  108.40299988    1.73000002    2.67000008
   15.14527798  107.18299866    1.73000002    2.67000008
   15.14777756  104.33100128    1.73000002    2.67000008
   15.15111065  111.49900055    1.73000002    2.67000008
   15.15444374  108.78800201    1.73000002    2.67000008
   15.16055489  108.78800201    1.73000002    2.67000008
   15.16472149  117.37799835    1.73000002    2.67000008
   15.16777802  108.65799713    1.73000002    2.67000008
   15.17111111  108.42099762    1.73000002    2.67000008
   15.17416668  104.23000336    1.73000002    2.67000008
   15.17750072  112.04699707    1.73000002    2.67000008
   15.17861176  117.94000244    1.73000002    2.67000008
   15.18111134  109.26799774    1.73000002    2.67000008
   15.18444443  114.07299805    1.73000002    2.67000008
   15.18777752  112.16999817    1.73000002    2.67000008
   15.19083309  112.58699799    1.73000002    2.67000008
   15.19416714  107.85399628    1.73000002    2.67000008
   15.19722271  113.40699768    1.73000002    2.67000008
   15.20333290  113.40699768    1.73000002    2.67000008
   15.20749950  109.92099762    1.73000002    2.67000008
   15.21055508   97.78260040    1.73000002    2.67000008
   15.21194458  105.10199738    1.73000002    2.67000008
   15.21416664  107.80100250    1.73000002    2.67000008
   15.21749973  104.80400085    1.73000002    2.67000008
   15.22083282  103.24700165    1.73000002    2.67000008
   15.22388840  107.16999817    1.73000002    2.67000008
   15.22722149  106.39199829    1.73000002    2.67000008
   15.23027706  102.27300262    1.73000002    2.67000008
   15.23361111  107.95800018    1.73000002    2.67000008
   15.23694515  113.54599762    1.73000002    2.67000008
   15.24000072  106.85800171    1.73000002    2.67000008
   15.24611092  106.85800171    1.73000002    2.67000008
   15.25027752  109.09899902    1.73000002    2.67000008
   15.25361156  108.66500092    1.73000002    2.67000008
   15.25666714  104.15399933    1.73000002    2.67000008
   15.26000023  105.74400330    1.73000002    2.67000008
   15.26305580  106.09700012    1.73000002    2.67000008
   15.26638889  109.23400116    1.73000002    2.67000008
   15.26972198  103.55100250    1.73000002    2.67000008
   15.27277756   97.14969635    1.73000002    2.67000008
   15.27611065  103.38200378    1.73000002    2.67000008
   15.27861118  106.29399872    1.73000002    2.67000008
   15.27972221  105.92700195    1.73000002    2.67000008
   15.28305531  104.83799744    1.73000002    2.67000008
   15.28888893  104.83799744    1.73000002    2.67000008
   15.29305553  111.87400055    1.73000002    2.67000008
   15.29638958  109.51599884    1.73000002    2.67000008
   15.29972267  111.94799805    1.73000002    2.67000008
   15.30277824  108.43499756    1.73000002    2.67000008
   15.30611134  106.37000275    1.73000002    2.67000008
   15.30916691  107.36100006    1.73000002    2.67000008
   15.31194496  105.83100128    1.73000002    2.67000008
   15.31277752  104.08399963    1.73000002    2.67000008
   15.31611156  109.87400055    1.73000002    2.67000008
   15.31944466  115.00800323    1.73000002    2.67000008
   15.32250023  111.33699799    1.73000002    2.67000008
   15.32583332  112.25000000    1.73000002    2.67000008
   15.33194447  112.25000000    1.73000002    2.67000008
   15.33611107  115.32499695    1.73000002    2.67000008
   15.33916664  110.17600250    1.73000002    2.67000008
   15.34249973  105.79000092    1.73000002    2.67000008
   15.34527779  114.18399811    1.73000002    2.67000008
   15.34583282  114.17600250    1.73000002    2.67000008
   15.34916592  108.24099731    1.73000002    2.67000008
   15.35249996  102.43699646    1.73000002    2.67000008
   15.35555553  111.64600372    1.73000002    2.67000008
   15.35888958  104.00399780    1.73000002    2.67000008
   15.36194515  109.45500183    1.73000002    2.67000008
   15.36527824  112.56199646    1.73000002    2.67000008
   15.36861134  106.05100250    1.73000002    2.67000008
   15.37472248  106.05100250    1.73000002    2.67000008
   15.37888908  100.13400269    1.73000002    2.67000008
   15.38222218  106.89399719    1.73000002    2.67000008
   15.38527775  111.23300171    1.73000002    2.67000008
   15.38861084  103.43900299    1.73000002    2.67000008
   15.39166641  107.50700378    1.73000002    2.67000008
   15.39499950   96.30799866    1.73000002    2.67000008
   15.39833355  111.37200165    1.73000002    2.67000008
   15.40138817  110.92500305    1.73000002    2.67000008
   15.40472221  110.33200073    1.73000002    2.67000008
   15.40777779  103.70099640    1.73000002    2.67000008
   15.41111088  109.50800323    1.73000002    2.67000008
   15.41194439  107.73999786    1.73000002    2.67000008
   15.41750050  107.73999786    1.73000002    2.67000008
   15.42166710  109.07700348    1.73000002    2.67000008
   15.42500019  109.09200287    1.73000002    2.67000008
   15.42805576  109.47599792    1.73000002    2.67000008
   15.43138885  105.44200134    1.73000002    2.67000008
   15.43472195  103.85199738    1.73000002    2.67000008
   15.43777752  108.74900055    1.73000002    2.67000008
   15.44111156  110.84999847    1.73000002    2.67000008
   15.44444466  104.17900085    1.73000002    2.67000008
   15.44527817  106.71199799    1.73000002    2.67000008
   15.44777775  108.03299713    1.73000002    2.67000008
   15.45111084  110.41200256    1.73000002    2.67000008
   15.45444393  100.91899872    1.73000002    2.67000008
   15.46027756  100.91899872    1.73000002    2.67000008
   15.46472168  103.63400269    1.73000002    2.67000008
   15.46777725  110.69799805    1.73000002    2.67000008
   15.47111034  106.15499878    1.73000002    2.67000008
   15.47444439  105.32900238    1.73000002    2.67000008
   15.47749996  111.39900208    1.73000002    2.67000008
   15.47861099  114.26899719    1.73000002    2.67000008
   15.48111057  109.44200134    1.73000002    2.67000008
   15.48444462  113.87500000    1.73000002    2.67000008
   15.48777771  106.60199738    1.73000002    2.67000008
   15.49083328  106.38999939    1.73000002    2.67000008
   15.49416733  111.42900085    1.73000002    2.67000008
   15.49750042  110.70300293    1.73000002    2.67000008
   15.50333309  110.70300293    1.73000002    2.67000008
   15.50749969  112.14499664    1.73000002    2.67000008
   15.51055527  104.88999939    1.73000002    2.67000008
   15.51194477  107.61699677    1.73000002    2.67000008
   15.51416683   99.58709717    1.73000002    2.67000008
   15.51749992  109.78299713    1.73000002    2.67000008
   15.52083302  106.90000153    1.73000002    2.67000008
   15.52388859  105.66699982    1.73000002    2.67000008
   15.52722168  113.25399780    1.73000002    2.67000008
   15.53055573  105.31800079    1.73000002    2.67000008
   15.53361130  106.84100342    1.73000002    2.67000008
   15.53694534  111.20600128    1.73000002    2.67000008
   15.54000092  103.13899994    1.73000002    2.67000008
   15.54611111  103.13899994    1.73000002    2.67000008
   15.55027771  100.74500275    1.73000002    2.67000008
   15.55333328  107.37599945    1.73000002    2.67000008
   15.55666733  105.13600159    1.73000002    2.67000008
   15.56000042  106.84700012    1.73000002    2.67000008
   15.56305599  106.89199829    1.73000002    2.67000008
   15.56638908  107.25099945    1.73000002    2.67000008
   15.56944466  106.73100281    1.73000002    2.67000008
   15.57277775  108.55899811    1.73000002    2.67000008
   15.57611084  104.17299652    1.73000002    2.67000008
   15.57861137  114.97699738    1.73000002    2.67000008
   15.59916592  114.97699738    1.73000002    2.67000008
   15.60333347  116.64900208    1.73000002    2.67000008
   15.60666752  110.69599915    1.73000002    2.67000008
   15.60972214  104.19400024    1.73000002    2.67000008
   15.61194515  112.69999695    1.73000002    2.67000008
   15.71500015   -1.00000000   -1.00000000   -1.00000000
   15.82944393   -1.00000000   -1.00000000   -1.00000000
   15.93333340   -1.00000000   -1.00000000   -1.00000000
   15.95666695  113.82800293    1.73000002    2.67000008
   15.96000004  114.41400146    1.73000002    2.67000008
   15.96305561  116.40499878    1.73000002    2.67000008
   15.96638870  110.22799683    1.73000002    2.67000008
   15.96972179  109.80799866    1.73000002    2.67000008
   15.97277737  112.42800140    1.73000002    2.67000008
   15.97694397  112.42800140    1.73000002    2.67000008
   15.98111057  114.56600189    1.73000002    2.67000008
   15.98444462  109.57099915    1.73000002    2.67000008
   15.98750019  111.03299713    1.73000002    2.67000008
   15.99000072  114.96499634    1.73000002    2.67000008
   15.99111176  112.36299896    1.73000002    2.67000008
   15.99444485  118.30699921    1.73000002    2.67000008
   15.99777794  110.39800262    1.73000002    2.67000008
   16.00083351  110.24700165    1.73000002    2.67000008
   16.00416756  113.64900208    1.73000002    2.67000008
   16.00722313  113.50499725    1.73000002    2.67000008
   16.01055527  107.58599854    1.73000002    2.67000008
   16.01388931  119.59300232    1.73000002    2.67000008
   16.02000046  119.59300232    1.73000002    2.67000008
   16.02388954  110.57499695    1.73000002    2.67000008
   16.02722168  108.25800323    1.73000002    2.67000008
   16.03055573  109.83899689    1.73000002    2.67000008
   16.03361130  109.90799713    1.73000002    2.67000008
   16.03694344  110.34100342    1.73000002    2.67000008
   16.04027748  116.55899811    1.73000002    2.67000008
   16.04333305  110.87599945    1.73000002    2.67000008
   16.04666710  111.10399628    1.73000002    2.67000008
   16.04972076  116.29399872    1.73000002    2.67000008
   16.05305481  114.21399689    1.73000002    2.67000008
   16.05638885  105.53500366    1.73000002    2.67000008
   16.05694389  109.97599792    1.73000002    2.67000008
   16.06277657  109.97599792    1.73000002    2.67000008
   16.06694603  112.56300354    1.73000002    2.67000008
   16.07000160  106.91100311    1.73000002    2.67000008
   16.07333374  113.48100281    1.73000002    2.67000008
   16.07638931  106.39600372    1.73000002    2.67000008
   16.07972336  110.28299713    1.73000002    2.67000008
   16.08305550  114.84200287    1.73000002    2.67000008
   16.08611107  105.31800079    1.73000002    2.67000008
   16.08944511  115.30500031    1.73000002    2.67000008
   16.09027863  108.64900208    1.73000002    2.67000008
   16.09305573  114.51899719    1.73000002    2.67000008
   16.09638977  108.34600067    1.73000002    2.67000008
   16.09972191  105.06700134    1.73000002    2.67000008
   16.10555649  105.06700134    1.73000002    2.67000008
   16.10972214  111.82199860    1.73000002    2.67000008
   16.11277771  111.65899658    1.73000002    2.67000008
   16.11611176  112.55599976    1.73000002    2.67000008
   16.11944389  110.66999817    1.73000002    2.67000008
   16.12249947  114.55999756    1.73000002    2.67000008
   16.12361145  108.96700287    1.73000002    2.67000008
   16.12611198  119.32599640    1.73000002    2.67000008
   16.12944412  107.81700134    1.73000002    2.67000008
   16.13277817  109.61399841    1.73000002    2.67000008
   16.13583374  115.16300201    1.73000002    2.67000008
   16.13916588  113.32199860    1.73000002    2.67000008
   16.14222145  114.91600037    1.73000002    2.67000008
   16.14833260  114.91600037    1.73000002    2.67000008
   16.15250015  108.05000305    1.73000002    2.67000008
   16.15583229  111.05300140    1.73000002    2.67000008
   16.15694427  113.65799713    1.73000002    2.67000008
   16.15916634  111.49400330    1.73000002    2.67000008
   16.16250038  110.36599731    1.73000002    2.67000008
   16.16583252  107.65100098    1.73000002    2.67000008
   16.16888809  113.97200012    1.73000002    2.67000008
   16.17222214  110.27700043    1.73000002    2.67000008
   16.17527771  116.19599915    1.73000002    2.67000008
   16.17860985  114.39800262    1.73000002    2.67000008
   16.18194389  114.47000122    1.73000002    2.67000008
   16.18499947  110.95899963    1.73000002    2.67000008
   16.19138718  110.95899963    1.73000002    2.67000008
   16.19527626  113.40100098    1.73000002    2.67000008
   16.19861031  108.68499756    1.73000002    2.67000008
   16.20194435  109.00099945    1.73000002    2.67000008
   16.20499992  104.62599945    1.73000002    2.67000008
   16.20833397  110.81099701    1.73000002    2.67000008
   16.21166801  108.94200134    1.73000002    2.67000008
   16.21500015  107.99400330    1.73000002    2.67000008
   16.21805573  110.10500336    1.73000002    2.67000008
   16.22138977  107.72799683    1.73000002    2.67000008
   16.22361183  109.22399902    1.73000002    2.67000008
   16.22472191  107.75299835    1.73000002    2.67000008
   16.22805595  109.94100189    1.73000002    2.67000008
   16.23416710  109.94100189    1.73000002    2.67000008
   16.23833275  113.80799866    1.73000002    2.67000008
   16.24138832  118.11100006    1.73000002    2.67000008
   16.24472237   90.91310120    1.73000002    2.67000008
   16.24805641  111.95500183    1.73000002    2.67000008
   16.25111198  108.53600311    1.73000002    2.67000008
   16.25444412  106.18499756    1.73000002    2.67000008
   16.25694466  104.83300018    1.73000002    2.67000008
   16.25805473  107.95500183    1.73000002    2.67000008
   16.26138878  110.25700378    1.73000002    2.67000008
   16.26472282  102.92199707    1.73000002    2.67000008
   16.26777840  107.88300323    1.73000002    2.67000008
   16.27111053  104.01300049    1.73000002    2.67000008
   16.27694511  104.01300049    1.73000002    2.67000008
   16.28111076  101.13200378    1.73000002    2.67000008
   16.28416634  101.09200287    1.73000002    2.67000008
   16.28750038  102.40799713    1.73000002    2.67000008
   16.29027748   98.75969696    1.73000002    2.67000008
   16.29111099  100.03700256    1.73000002    2.67000008
   16.29444313  102.71499634    1.73000002    2.67000008
   16.29777718  109.57900238    1.73000002    2.67000008
   16.30083275  105.79900360    1.73000002    2.67000008
   16.30416679  102.47200012    1.73000002    2.67000008
   16.30722237  103.21199799    1.73000002    2.67000008
   16.31055450  109.38999939    1.73000002    2.67000008
   16.31388855  106.44699860    1.73000002    2.67000008
   16.31972313  106.44699860    1.73000002    2.67000008
   16.32389069  100.03299713    1.73000002    2.67000008
   16.32722282  102.60600281    1.73000002    2.67000008
   16.33027840  101.03500366    1.73000002    2.67000008
   16.33361244  102.35099792    1.73000002    2.67000008
   16.33694458  111.81400299    1.73000002    2.67000008
   16.34000015  106.84899902    1.73000002    2.67000008
   16.34333420  106.68699646    1.73000002    2.67000008
   16.34638977   96.60980225    1.73000002    2.67000008
   16.34972191  105.69499969    1.73000002    2.67000008
   16.35305595  107.33799744    1.73000002    2.67000008
   16.35611153  104.55899811    1.73000002    2.67000008
   16.35694504  101.62500000    1.73000002    2.67000008
   16.36250114  101.62500000    1.73000002    2.67000008
   16.36666679  104.17700195    1.73000002    2.67000008
   16.37000084  100.81999969    1.73000002    2.67000008
   16.37333298   99.81800079    1.73000002    2.67000008
   16.37638855   99.76709747    1.73000002    2.67000008
   16.37972260   95.27469635    1.73000002    2.67000008
   16.38305473   97.18530273    1.73000002    2.67000008
   16.38611031  106.19799805    1.73000002    2.67000008
   16.38944435  101.95999908    1.73000002    2.67000008
   16.39027786   99.56510162    1.73000002    2.67000008
   16.39277840  104.83899689    1.73000002    2.67000008
   16.39611053  102.50099945    1.73000002    2.67000008
   16.39944458  104.87200165    1.73000002    2.67000008
   16.40555573  104.87200165    1.73000002    2.67000008
   16.40972137  104.44699860    1.73000002    2.67000008
   16.41277695  111.27200317    1.73000002    2.67000008
   16.41611099  105.88400269    1.73000002    2.67000008
   16.41916656  106.05400085    1.73000002    2.67000008
   16.42249870  112.80500031    1.73000002    2.67000008
   16.42361069   95.27739716    1.73000002    2.67000008
   16.42611122  103.78700256    1.73000002    2.67000008
   16.42944336  106.22399902    1.73000002    2.67000008
   16.43277740  101.53299713    1.73000002    2.67000008
   16.43583298  112.63899994    1.73000002    2.67000008
   16.43916512  105.25499725    1.73000002    2.67000008
   16.44249916  104.22200012    1.73000002    2.67000008
   16.44833183  104.22200012    1.73000002    2.67000008
   16.45250130  102.42800140    1.73000002    2.67000008
   16.45555687  106.04799652    1.73000002    2.67000008
   16.45694542  104.68599701    1.73000002    2.67000008
   16.45916748  105.38300323    1.73000002    2.67000008
   16.46250153  105.60900116    1.73000002    2.67000008
   16.46583366  105.04000092    1.73000002    2.67000008
   16.46888924  102.68900299    1.73000002    2.67000008
   16.47222328   99.06140137    1.73000002    2.67000008
   16.47555542  107.83200073    1.73000002    2.67000008
   16.47861099  100.33300018    1.73000002    2.67000008
   16.48194504  104.59400177    1.73000002    2.67000008
   16.48500061  106.73300171    1.73000002    2.67000008
   16.49111176  106.73300171    1.73000002    2.67000008
   16.49527740   99.52369690    1.73000002    2.67000008
   16.49861145  101.36299896    1.73000002    2.67000008
   16.50166702  104.97200012    1.73000002    2.67000008
   16.50499916  105.97699738    1.73000002    2.67000008
   16.50833321  107.76599884    1.73000002    2.67000008
   16.51138878  104.22899628    1.73000002    2.67000008
   16.51472282  104.30000305    1.73000002    2.67000008
   16.51777840  105.77700043    1.73000002    2.67000008
   16.52111053  111.17199707    1.73000002    2.67000008
   16.52361107   96.07479858    1.73000002    2.67000008
   16.52472115  102.19799805    1.73000002    2.67000008
   16.52805519  110.62000275    1.73000002    2.67000008
   16.53388786  110.62000275    1.73000002    2.67000008
   16.53805542  105.40200043    1.73000002    2.67000008
   16.54138756  102.83399963    1.73000002    2.67000008
   16.54472160  107.88999939    1.73000002    2.67000008
   16.54777718  101.06199646    1.73000002    2.67000008
   16.55111122   95.53130341    1.73000002    2.67000008
   16.55416679  105.31800079    1.73000002    2.67000008
   16.55694389  108.70099640    1.73000002    2.67000008
   16.55777740  101.77200317    1.73000002    2.67000008
   16.56110954  106.51000214    1.73000002    2.67000008
   16.56444359  105.58200073    1.73000002    2.67000008
   16.56750107   87.89009857    1.73000002    2.67000008
   16.57083511  102.39299774    1.73000002    2.67000008
   16.57694626  102.39299774    1.73000002    2.67000008
   16.58111191   99.43150330    1.73000002    2.67000008
   16.58416748  103.39299774    1.73000002    2.67000008
   16.58750153  108.13400269    1.73000002    2.67000008
   16.59055710  110.48300171    1.73000002    2.67000008
   16.59138870  101.37899780    1.73000002    2.67000008
   16.59444427  102.96399689    1.73000002    2.67000008
   16.59777832   98.46269989    1.73000002    2.67000008
   16.60111237  109.69400024    1.73000002    2.67000008
   16.60416794   96.53949738    1.73000002    2.67000008
   16.60750008  108.05300140    1.73000002    2.67000008
   16.61055565  113.05400085    1.73000002    2.67000008
   16.61388969  110.60500336    1.73000002    2.67000008
   16.61972237  110.60500336    1.73000002    2.67000008
   16.62388992  107.72399902    1.73000002    2.67000008
   16.62722206  104.97100067    1.73000002    2.67000008
   16.63027763  110.41400146    1.73000002    2.67000008
   16.63361168  102.69499969    1.73000002    2.67000008
   16.63694382  103.60299683    1.73000002    2.67000008
   16.63999939  107.91300201    1.73000002    2.67000008
   16.64333344  102.59999847    1.73000002    2.67000008
   16.64638901  104.90699768    1.73000002    2.67000008
   16.64972115  105.57599640    1.73000002    2.67000008
   16.65305519   99.83439636    1.73000002    2.67000008
   16.65611076   95.72689819    1.73000002    2.67000008
   16.65694427   98.85420227    1.73000002    2.67000008
   16.66250038   98.85420227    1.73000002    2.67000008
   16.66666603  104.66200256    1.73000002    2.67000008
   16.67000008  112.66500092    1.73000002    2.67000008
   16.67305565  105.97799683    1.73000002    2.67000008
   16.67638779  110.54900360    1.73000002    2.67000008
   16.67972183  101.44200134    1.73000002    2.67000008
   16.68277740  101.27100372    1.73000002    2.67000008
   16.68610954  105.33200073    1.73000002    2.67000008
   16.68916512  102.64700317    1.73000002    2.67000008
   16.69027710  104.94400024    1.73000002    2.67000008
   16.69305420  103.04900360    1.73000002    2.67000008
   16.69610977  106.55799866    1.73000002    2.67000008
   16.69944382  102.93399811    1.73000002    2.67000008
   16.70527840  102.93399811    1.73000002    2.67000008
   16.70944595  104.03099823    1.73000002    2.67000008
   16.71277809  106.51300049    1.73000002    2.67000008
   16.71611214   92.04519653    1.73000002    2.67000008
   16.71916771  105.58300018    1.73000002    2.67000008
   16.72249985  102.59500122    1.73000002    2.67000008
   16.72361183  104.33100128    1.73000002    2.67000008
   16.72611237  100.35500336    1.73000002    2.67000008
   16.72916794  106.77100372    1.73000002    2.67000008
   16.73250008  103.11399841    1.73000002    2.67000008
   16.73555565  104.97200012    1.73000002    2.67000008
   16.73888969  102.88600159    1.73000002    2.67000008
   16.74222183  105.29499817    1.73000002    2.67000008
   16.74833298  105.29499817    1.73000002    2.67000008
   16.75250053  107.75000000    1.73000002    2.67000008
   16.75555611  115.41799927    1.73000002    2.67000008
   16.75694466  103.65799713    1.73000002    2.67000008
   16.75944519  109.55999756    1.73000002    2.67000008
   16.76250076  110.37100220    1.73000002    2.67000008
   16.76583290  114.25199890    1.73000002    2.67000008
   16.76888847  121.66200256    1.73000002    2.67000008
   16.77222252  111.53900146    1.73000002    2.67000008
   16.77555466  104.40499878    1.73000002    2.67000008
   16.77861023  109.01200104    1.73000002    2.67000008
   16.78194427  109.24600220    1.73000002    2.67000008
   16.78527641  105.72799683    1.73000002    2.67000008
   16.79111099  105.72799683    1.73000002    2.67000008
   16.79527664  104.01899719    1.73000002    2.67000008
   16.79833221  105.47399902    1.73000002    2.67000008
   16.80166626  106.43399811    1.73000002    2.67000008
   16.80499840  105.13999939    1.73000002    2.67000008
   16.80805397  108.17500305    1.73000002    2.67000008
   16.81138802  108.58799744    1.73000002    2.67000008
   16.81472206  106.70099640    1.73000002    2.67000008
   16.81777954  103.97299957    1.73000002    2.67000008
   16.82111168  108.61000061    1.73000002    2.67000008
   16.82361221  105.49199677    1.73000002    2.67000008
   16.82472229  105.93800354    1.73000002    2.67000008
   16.82777786  102.46600342    1.73000002    2.67000008
   16.83388901  102.46600342    1.73000002    2.67000008
   16.83805656  102.60399628    1.73000002    2.67000008
   16.84138870  100.69200134    1.73000002    2.67000008
   16.84444427  105.58899689    1.73000002    2.67000008
   16.84777832  104.28800201    1.73000002    2.67000008
   16.85111237  107.16500092    1.73000002    2.67000008
   16.85416794  105.81800079    1.73000002    2.67000008
   16.85694504  110.03800201    1.73000002    2.67000008
   16.85805511  110.77400208    1.73000002    2.67000008
   16.86111069  107.80599976    1.73000002    2.67000008
   16.86444473  113.25399780    1.73000002    2.67000008
   16.86777878  109.04399872    1.73000002    2.67000008
   16.87083435  113.16200256    1.73000002    2.67000008
   16.87666702  113.16200256    1.73000002    2.67000008
   16.88083267  107.15399933    1.73000002    2.67000008
   16.88416672  103.53199768    1.73000002    2.67000008
   16.88750076  106.67600250    1.73000002    2.67000008
   16.89027786  105.47699738    1.73000002    2.67000008
   16.89111137  101.51399994    1.73000002    2.67000008
   16.89416695  103.23999786    1.73000002    2.67000008
   16.89749908   98.18080139    1.73000002    2.67000008
   16.90083313  110.03800201    1.73000002    2.67000008
   16.90388870  111.45500183    1.73000002    2.67000008
   16.90722275  108.47200012    1.73000002    2.67000008
   16.91027832  106.65899658    1.73000002    2.67000008
   16.91361046  108.25199890    1.73000002    2.67000008
   16.91972160  108.25199890    1.73000002    2.67000008
   16.92388916  103.91300201    1.73000002    2.67000008
   16.92694473  101.93099976    1.73000002    2.67000008
   16.93027687  104.44000244    1.73000002    2.67000008
   16.93333244  103.73300171    1.73000002    2.67000008
   16.93666649  105.75399780    1.73000002    2.67000008
   16.93999863  108.84700012    1.73000002    2.67000008
   16.94305420  109.06600189    1.73000002    2.67000008
   16.94638824  110.22899628    1.73000002    2.67000008
   16.94972038  106.99199677    1.73000002    2.67000008
   16.95277786  111.66799927    1.73000002    2.67000008
   16.95611191  107.21199799    1.73000002    2.67000008
   16.95694542  106.29100037    1.73000002    2.67000008
   16.97750092  106.29100037    1.73000002    2.67000008
   16.98166656  103.55899811    1.73000002    2.67000008
   16.98500061  114.42500305    1.73000002    2.67000008
   16.98833275  110.04799652    1.73000002    2.67000008
   16.99027824  106.68299866    1.73000002    2.67000008
   16.99194527  108.76599884    1.73000002    2.67000008
   16.99527740  110.00599670    1.73000002    2.67000008
   16.99833298  112.33399963    1.73000002    2.67000008
   17.00166702  119.58000183    1.73000002    2.67000008
   17.00499916  110.04100037    1.73000002    2.67000008
   17.00805473  110.83000183    1.73000002    2.67000008
   17.01138878  102.35099792    1.73000002    2.67000008
   17.01444435  106.84300232    1.73000002    2.67000008
   17.02027702  106.84300232    1.73000002    2.67000008
   17.02444458  114.03800201    1.73000002    2.67000008
   17.02777672  118.85700226    1.73000002    2.67000008
   17.03083229  112.77300262    1.73000002    2.67000008
   17.03416634  112.49099731    1.73000002    2.67000008
   17.03750038  112.84600067    1.73000002    2.67000008
   17.04055595  113.28299713    1.73000002    2.67000008
   17.04388809  107.50900269    1.73000002    2.67000008
   17.04722214  112.74099731    1.73000002    2.67000008
   17.05027771  111.25900269    1.73000002    2.67000008
   17.05360985  110.34700012    1.73000002    2.67000008
   17.05666542  113.09899902    1.73000002    2.67000008
   17.05722237  110.33000183    1.73000002    2.67000008
   17.06333351  110.33000183    1.73000002    2.67000008
   17.06722260  113.30100250    1.73000002    2.67000008
   17.07055664  115.62799835    1.73000002    2.67000008
   17.07389069  113.89800262    1.73000002    2.67000008
   17.07694626  115.35500336    1.73000002    2.67000008
   17.08027840  109.53900146    1.73000002    2.67000008
   17.08361244  111.19699860    1.73000002    2.67000008
   17.08666801  109.06500244    1.73000002    2.67000008
   17.09000015  116.79499817    1.73000002    2.67000008
   17.09055710  112.32399750    1.73000002    2.67000008
   17.09361267  105.67600250    1.73000002    2.67000008
   17.09694481  113.31800079    1.73000002    2.67000008
   17.10000038  107.15399933    1.73000002    2.67000008
   17.10611153  107.15399933    1.73000002    2.67000008
   17.11027908  107.79100037    1.73000002    2.67000008
   17.11333466  110.81199646    1.73000002    2.67000008
   17.11666679  101.90399933    1.73000002    2.67000008
   17.12000084  106.27899933    1.73000002    2.67000008
   17.12305641  106.85199738    1.73000002    2.67000008
   17.12388992  116.62100220    1.73000002    2.67000008
   17.12666702  105.50299835    1.73000002    2.67000008
   17.13000107  107.80999756    1.73000002    2.67000008
   17.13305473  109.13300323    1.73000002    2.67000008
   17.13638878  117.56099701    1.73000002    2.67000008
   17.13972282  106.63800049    1.73000002    2.67000008
   17.14277840  116.15899658    1.73000002    2.67000008
   17.14888954  116.15899658    1.73000002    2.67000008
   17.15305519  118.64199829    1.73000002    2.67000008
   17.15638924  114.55100250    1.73000002    2.67000008
   17.15722275  112.43800354    1.73000002    2.67000008
   17.15999985  114.89600372    1.73000002    2.67000008
   17.16333389  119.72599792    1.73000002    2.67000008
   17.16638756  114.00900269    1.73000002    2.67000008
   17.16972160  115.00499725    1.73000002    2.67000008
   17.17305565  118.74400330    1.73000002    2.67000008
   17.17611122  120.80999756    1.73000002    2.67000008
   17.17944336  114.52799988    1.73000002    2.67000008
   17.18249893  118.51499939    1.73000002    2.67000008
   17.18583298  110.21299744    1.73000002    2.67000008
   17.19166565  110.21299744    1.73000002    2.67000008
   17.19583321  114.93199921    1.73000002    2.67000008
   17.19916534  108.31800079    1.73000002    2.67000008
   17.20222282  111.94000244    1.73000002    2.67000008
   17.20555687  115.82900238    1.73000002    2.67000008
   17.20888901  111.13099670    1.73000002    2.67000008
   17.21194458  108.05400085    1.73000002    2.67000008
   17.21527863  105.38600159    1.73000002    2.67000008
   17.21861076  112.94300079    1.73000002    2.67000008
   17.22166634  109.54900360    1.73000002    2.67000008
   17.22389030  119.90399933    1.73000002    2.67000008
   17.22527885  111.79000092    1.73000002    2.67000008
   17.22861099  115.50099945    1.73000002    2.67000008
   17.23444557  115.50099945    1.73000002    2.67000008
   17.23861122  115.84899902    1.73000002    2.67000008
   17.24194527  112.95999908    1.73000002    2.67000008
   17.24527740  115.10299683    1.73000002    2.67000008
   17.24833298  125.16799927    1.73000002    2.67000008
   17.25166702  118.13999939    1.73000002    2.67000008
   17.25472260  116.97499847    1.73000002    2.67000008
   17.25722313  117.81999969    1.73000002    2.67000008
   17.25833321  118.92299652    1.73000002    2.67000008
   17.26166725  107.20899963    1.73000002    2.67000008
   17.26472282  113.00199890    1.73000002    2.67000008
   17.26805496  111.49299622    1.73000002    2.67000008
   17.27138901  117.00099945    1.73000002    2.67000008
   17.27750015  117.00099945    1.73000002    2.67000008
   17.28166580  117.36900330    1.73000002    2.67000008
   17.28472137  126.99099731    1.73000002    2.67000008
   17.28805542  122.14900208    1.73000002    2.67000008
   17.29055595  120.21800232    1.73000002    2.67000008
   17.29166603  120.33499908    1.73000002    2.67000008
   17.29500008  111.53500366    1.73000002    2.67000008
   17.29805565  116.97100067    1.73000002    2.67000008
   17.30138779  116.56999969    1.73000002    2.67000008
   17.30472183  119.42099762    1.73000002    2.67000008
   17.30777740  120.43499756    1.73000002    2.67000008
   17.31110954  117.10900116    1.73000002    2.67000008
   17.31416512  114.83000183    1.73000002    2.67000008
   17.32027817  114.83000183    1.73000002    2.67000008
   17.32444572  110.28099823    1.73000002    2.67000008
   17.32750130  107.17500305    1.73000002    2.67000008
   17.33083344   99.44789886    1.73000002    2.67000008
   17.33416748  105.03900146    1.73000002    2.67000008
   17.33722305  102.05200195    1.73000002    2.67000008
   17.34055710  104.20899963    1.73000002    2.67000008
   17.34388924   98.48249817    1.73000002    2.67000008
   17.34694481  107.10700226    1.73000002    2.67000008
   17.35027885  103.46399689    1.73000002    2.67000008
   17.35333443  102.74600220    1.73000002    2.67000008
   17.35666656  105.59200287    1.73000002    2.67000008
   17.35750008   99.21810150    1.73000002    2.67000008
   17.36305618   99.21810150    1.73000002    2.67000008
   17.36722183  106.70300293    1.73000002    2.67000008
   17.37055588  108.02300262    1.73000002    2.67000008
   17.37361145  111.29399872    1.73000002    2.67000008
   17.37694550  104.38600159    1.73000002    2.67000008
   17.38027763  101.24299622    1.73000002    2.67000008
   17.38333321  103.65799713    1.73000002    2.67000008
   17.38666725  106.02899933    1.73000002    2.67000008
   17.38972282  104.25700378    1.73000002    2.67000008
   17.39083290  108.97599792    1.73000002    2.67000008
   17.39333344  101.18000031    1.73000002    2.67000008
   17.39666748  103.89099884    1.73000002    2.67000008
   17.39972115  101.22000122    1.73000002    2.67000008
   17.40583229  101.22000122    1.73000002    2.67000008
   17.40999985  106.26399994    1.73000002    2.67000008
   17.41333389  103.56400299    1.73000002    2.67000008
   17.41666603   96.27290344    1.73000002    2.67000008
   17.41972160  102.14900208    1.73000002    2.67000008
   17.42305565  103.72200012    1.73000002    2.67000008
   17.42416573  105.56300354    1.73000002    2.67000008
   17.42666626  109.04900360    1.73000002    2.67000008
   17.43000031  105.65699768    1.73000002    2.67000008
   17.43305397  107.44100189    1.73000002    2.67000008
   17.43638802  118.91100311    1.73000002    2.67000008
   17.43972206  110.81199646    1.73000002    2.67000008
   17.44277763  114.55100250    1.73000002    2.67000008
   17.44888878  114.55100250    1.73000002    2.67000008
   17.45305634  102.79599762    1.73000002    2.67000008
   17.45611191  111.71499634    1.73000002    2.67000008
   17.45750046  112.70099640    1.73000002    2.67000008
   17.45972252  112.69300079    1.73000002    2.67000008
   17.46305656  107.19999695    1.73000002    2.67000008
   17.46611214  112.13700104    1.73000002    2.67000008
   17.46944427  106.17900085    1.73000002    2.67000008
   17.47277832  110.63200378    1.73000002    2.67000008
   17.47583389  111.43299866    1.73000002    2.67000008
   17.47916794  105.08999634    1.73000002    2.67000008
   17.48250008   97.15370178    1.73000002    2.67000008
   17.48555565  105.30699921    1.73000002    2.67000008
   17.49166679  105.30699921    1.73000002    2.67000008
   17.49583435   98.89459991    1.73000002    2.67000008
   17.49888992  113.63400269    1.73000002    2.67000008
   17.50222206  120.20899963    1.73000002    2.67000008
   17.50555611  107.12599945    1.73000002    2.67000008
   17.50861168  118.87100220    1.73000002    2.67000008
   17.51194382  108.94400024    1.73000002    2.67000008
   17.51527786  107.51599884    1.73000002    2.67000008
   17.51833344  107.71600342    1.73000002    2.67000008
   17.52166557  110.42199707    1.73000002    2.67000008
   17.52416611  107.28600311    1.73000002    2.67000008
   17.52527809  105.82499695    1.73000002    2.67000008
   17.52861023  100.44300079    1.73000002    2.67000008
   17.53444481  100.44300079    1.73000002    2.67000008
   17.53861046  115.52100372    1.73000002    2.67000008
   17.54194450  120.52100372    1.73000002    2.67000008
   17.54500008  112.26300049    1.73000002    2.67000008
   17.54833221  108.38300323    1.73000002    2.67000008
   17.55166626  113.86399841    1.73000002    2.67000008
   17.55472183  112.33799744    1.73000002    2.67000008
   17.55749893  114.80200195    1.73000002    2.67000008
   17.55833244  115.45300293    1.73000002    2.67000008
   17.56166649  109.37899780    1.73000002    2.67000008
   17.56472206  107.00199890    1.73000002    2.67000008
   17.56805611  117.73699951    1.73000002    2.67000008
   17.57139015  118.87899780    1.73000002    2.67000008
   17.57722282  118.87899780    1.73000002    2.67000008
   17.58139038  124.15499878    1.73000002    2.67000008
   17.58472252  116.87899780    1.73000002    2.67000008
   17.58805656  119.06600189    1.73000002    2.67000008
   17.59083366  122.04100037    1.73000002    2.67000008
   17.59138870  128.67199707    1.73000002    2.67000008
   17.59472275  130.91799927    1.73000002    2.67000008
   17.59805679  130.85600281    1.73000002    2.67000008
   17.60111237  118.61599731    1.73000002    2.67000008
   17.60444450  114.77300262    1.73000002    2.67000008
   17.60777855  120.54699707    1.73000002    2.67000008
   17.61083412  109.42800140    1.73000002    2.67000008
   17.61416626  127.42099762    1.73000002    2.67000008
   17.62027740  127.42099762    1.73000002    2.67000008
   17.62444496  120.64199829    1.73000002    2.67000008
   17.62750053  125.21499634    1.73000002    2.67000008
   17.63083267  129.87500000    1.73000002    2.67000008
   17.63388824  111.15499878    1.73000002    2.67000008
   17.63722229  115.43900299    1.73000002    2.67000008
   17.64055634  120.05400085    1.73000002    2.67000008
   17.64361191  122.25499725    1.73000002    2.67000008
   17.64694405  114.41799927    1.73000002    2.67000008
   17.65027809  106.04299927    1.73000002    2.67000008
   17.65333366  111.24299622    1.73000002    2.67000008
   17.65666580  111.38700104    1.73000002    2.67000008
   17.65749931  120.30300140    1.73000002    2.67000008
   17.66305542  120.30300140    1.73000002    2.67000008
   17.66722107  115.26300049    1.73000002    2.67000008
   17.67027664  127.79599762    1.73000002    2.67000008
   17.67361069  117.04499817    1.73000002    2.67000008
   17.67694473  107.00399780    1.73000002    2.67000008
   17.68027687  120.90799713    1.73000002    2.67000008
   17.68333244  131.12399292    1.73000002    2.67000008
   17.68666649  137.89900208    1.73000002    2.67000008
   17.68972206  117.97299957    1.73000002    2.67000008
   17.69083214  114.76399994    1.73000002    2.67000008
   17.69333267  133.52699280    1.73000002    2.67000008
   17.69666672  139.73800659    1.73000002    2.67000008
   17.70000076  121.03299713    1.73000002    2.67000008
   17.70583344  121.03299713    1.73000002    2.67000008
   17.71000099  117.44000244    1.73000002    2.67000008
   17.71333504  126.77100372    1.73000002    2.67000008
   17.71638870  117.21199799    1.73000002    2.67000008
   17.71972275  124.22000122    1.73000002    2.67000008
   17.72305679  118.08399963    1.73000002    2.67000008
   17.72416687  122.92900085    1.73000002    2.67000008
   17.72638893  131.51199341    1.73000002    2.67000008
   17.72972298  120.70600128    1.73000002    2.67000008
   17.73305511  122.24199677    1.73000002    2.67000008
   17.73611069  122.12200165    1.73000002    2.67000008
   17.73944473  116.66400146    1.73000002    2.67000008
   17.74250031  117.89199829    1.73000002    2.67000008
   17.74861145  117.89199829    1.73000002    2.67000008
   17.75277710  115.90599823    1.73000002    2.67000008
   17.75611115  106.06400299    1.73000002    2.67000008
   17.75749969  102.68499756    1.73000002    2.67000008
   17.75972176  104.30699921    1.73000002    2.67000008
   17.76305580  119.79799652    1.73000002    2.67000008
   17.76638794  113.00299835    1.73000002    2.67000008
   17.76944351  107.33300018    1.73000002    2.67000008
   17.77277756  104.12100220    1.73000002    2.67000008
   17.77583313  106.48300171    1.73000002    2.67000008
   17.77916718  106.31900024    1.73000002    2.67000008
   17.78249931  110.94699860    1.73000002    2.67000008
   17.78555489  112.89499664    1.73000002    2.67000008
   17.79166603  112.89499664    1.73000002    2.67000008
   17.79583359  113.93900299    1.73000002    2.67000008
   17.79888916  110.89099884    1.73000002    2.67000008
   17.80222130  110.02500153    1.73000002    2.67000008
   17.80527687  112.74199677    1.73000002    2.67000008
   17.80861092  113.11599731    1.73000002    2.67000008
   17.81194305  114.61000061    1.73000002    2.67000008
   17.81499863  110.59999847    1.73000002    2.67000008
   17.81833458  111.22499847    1.73000002    2.67000008
   17.82166672  115.83200073    1.73000002    2.67000008
   17.82416725  115.32800293    1.73000002    2.67000008
   17.82500076  115.81999969    1.73000002    2.67000008
   17.82833481  113.05899811    1.73000002    2.67000008
   17.83444595  113.05899811    1.73000002    2.67000008
   17.83861160  109.32700348    1.73000002    2.67000008
   17.84166718  110.94599915    1.73000002    2.67000008
   17.84500122  111.77100372    1.73000002    2.67000008
   17.84833336  108.57199860    1.73000002    2.67000008
   17.85138893  107.97699738    1.73000002    2.67000008
   17.85472298  115.39800262    1.73000002    2.67000008
   17.85750008  115.78700256    1.73000002    2.67000008
   17.85833359  113.48600006    1.73000002    2.67000008
   17.86166763  106.37000275    1.73000002    2.67000008
   17.86499977  114.88999939    1.73000002    2.67000008
   17.86805534  104.84300232    1.73000002    2.67000008
   17.87138939  109.35700226    1.73000002    2.67000008
   17.87722206  109.35700226    1.73000002    2.67000008
   17.88138962  104.33000183    1.73000002    2.67000008
   17.88472176  107.35900116    1.73000002    2.67000008
   17.88777733  108.23999786    1.73000002    2.67000008
   17.89083290  115.04399872    1.73000002    2.67000008
   17.89138794  111.72799683    1.73000002    2.67000008
   17.89472198  106.90899658    1.73000002    2.67000008
   17.89805603  110.91100311    1.73000002    2.67000008
   17.90111160  110.77899933    1.73000002    2.67000008
   17.90444374  120.51200104    1.73000002    2.67000008
   17.90777779  121.07700348    1.73000002    2.67000008
   17.91083336  111.73600006    1.73000002    2.67000008
   17.91416550  109.02500153    1.73000002    2.67000008
   17.92000008  109.02500153    1.73000002    2.67000008
   17.92416573  122.81199646    1.73000002    2.67000008
   17.92749977  116.31600189    1.73000002    2.67000008
   17.93083191  111.80500031    1.73000002    2.67000008
   17.93388748  110.63600159    1.73000002    2.67000008
   17.93722153  114.50000000    1.73000002    2.67000008
   17.94027710  112.76200104    1.73000002    2.67000008
   17.94361115  112.62999725    1.73000002    2.67000008
   17.94694328  106.44200134    1.73000002    2.67000008
   17.95000076  105.86799622    1.73000002    2.67000008
   17.95333481  112.97200012    1.73000002    2.67000008
   17.95666695  112.04100037    1.73000002    2.67000008
   17.95750046  117.38500214    1.73000002    2.67000008
   17.96305656  117.38500214    1.73000002    2.67000008
   17.96722221  113.69999695    1.73000002    2.67000008
   17.97027779  112.36000061    1.73000002    2.67000008
   17.97361183  108.61000061    1.73000002    2.67000008
   17.99111176  119.63700104    1.73000002    2.67000008
   17.99361229  119.83100128    1.73000002    2.67000008
   17.99666786  112.64299774    1.73000002    2.67000008
   18.00000000  119.87599945    1.73000002    2.67000008
   18.00583267  119.87599945    1.73000002    2.67000008
   18.01000023  116.29100037    1.73000002    2.67000008
   18.01333427  110.83699799    1.73000002    2.67000008
   18.01666641  116.86499786    1.73000002    2.67000008
   18.01972198  105.43299866    1.73000002    2.67000008
   18.02305603  119.17700195    1.73000002    2.67000008
   18.02444458  111.43000031    1.73000002    2.67000008
   18.02666664  111.17500305    1.73000002    2.67000008
   18.03000069  108.69499969    1.73000002    2.67000008
   18.03333282  110.78500366    1.73000002    2.67000008
   18.03638840  113.78800201    1.73000002    2.67000008
   18.03972244  113.68800354    1.73000002    2.67000008
   18.04305458  107.87400055    1.73000002    2.67000008
   18.04888916  107.87400055    1.73000002    2.67000008
   18.05305481  107.72799683    1.73000002    2.67000008
   18.05611038  117.15100098    1.73000002    2.67000008
   18.05777740  119.38099670    1.73000002    2.67000008
   18.05972099  134.57299805    1.73000002    2.67000008
   18.06305504  120.95899963    1.73000002    2.67000008
   18.06638718  126.34400177    1.73000002    2.67000008
   18.06944466  126.28099823    1.73000002    2.67000008
   18.07277870  121.59999847    1.73000002    2.67000008
   18.07583427  117.81400299    1.73000002    2.67000008
   18.07916832  121.39499664    1.73000002    2.67000008
   18.08250046  121.48400116    1.73000002    2.67000008
   18.08555603  118.04000092    1.73000002    2.67000008
   18.09166718  118.04000092    1.73000002    2.67000008
   18.09583473  111.29900360    1.73000002    2.67000008
   18.09916687  124.05599976    1.73000002    2.67000008
   18.10222244  119.38600159    1.73000002    2.67000008
   18.10555649  120.31700134    1.73000002    2.67000008
   18.10888863  117.29499817    1.73000002    2.67000008
   18.11194420  127.15399933    1.73000002    2.67000008
   18.11527824  112.55100250    1.73000002    2.67000008
   18.11861038  109.26399994    1.73000002    2.67000008
   18.12166595  113.72200012    1.73000002    2.67000008
   18.12444496  106.13700104    1.73000002    2.67000008
   18.12527847  115.00700378    1.73000002    2.67000008
   18.12861061  110.32800293    1.73000002    2.67000008
   18.13444519  110.32800293    1.73000002    2.67000008
   18.13861084  114.70500183    1.73000002    2.67000008
   18.14194489  113.65699768    1.73000002    2.67000008
   18.14500046  111.97899628    1.73000002    2.67000008
   18.14861107  119.51000214    1.73000002    2.67000008
   18.15194321  123.39099884    1.73000002    2.67000008
   18.15499878  110.65599823    1.73000002    2.67000008
   18.15777779  112.32700348    1.73000002    2.67000008
   18.15861130  122.57099915    1.73000002    2.67000008
   18.16194344  107.71299744    1.73000002    2.67000008
   18.16527748  106.14499664    1.73000002    2.67000008
   18.16833305  104.85199738    1.73000002    2.67000008
   18.17166519  107.98400116    1.73000002    2.67000008
   18.17749977  107.98400116    1.73000002    2.67000008
   18.18138885  116.82299805    1.73000002    2.67000008
   18.18472099  114.51599884    1.73000002    2.67000008
   18.18805504  117.40100098    1.73000002    2.67000008
   18.19111061  116.93099976    1.73000002    2.67000008
   18.19138718  118.70400238    1.73000002    2.67000008
   18.19472122  107.31099701    1.73000002    2.67000008
   18.19805527  110.05400085    1.73000002    2.67000008
   18.20111275  123.46399689    1.73000002    2.67000008
   18.20444489  114.29799652    1.73000002    2.67000008
   18.20777893  113.54100037    1.73000002    2.67000008
   18.21083450  118.27400208    1.73000002    2.67000008
   18.21416664  118.19899750    1.73000002    2.67000008
   18.22027779  118.19899750    1.73000002    2.67000008
   18.22444534  101.04799652    1.73000002    2.67000008
   18.22750092  104.22000122    1.73000002    2.67000008
   18.23083305  109.56400299    1.73000002    2.67000008
   18.23416710  110.38500214    1.73000002    2.67000008
   18.23722267  107.85700226    1.73000002    2.67000008
   18.24055672  114.19799805    1.73000002    2.67000008
   18.24361229  105.37999725    1.73000002    2.67000008
   18.24694443  101.66999817    1.73000002    2.67000008
   18.25027847  102.63200378    1.73000002    2.67000008
   18.25333405  102.10099792    1.73000002    2.67000008
   18.25666618  105.81199646    1.73000002    2.67000008
   18.25777817  108.00199890    1.73000002    2.67000008
   18.26305580  108.00199890    1.73000002    2.67000008
   18.26722145   99.37920380    1.73000002    2.67000008
   18.27055550   93.63590240    1.73000002    2.67000008
   18.27361107  112.36599731    1.73000002    2.67000008
   18.27694511  106.12100220    1.73000002    2.67000008
   18.28000069  105.22899628    1.73000002    2.67000008
   18.28333282  101.75900269    1.73000002    2.67000008
   18.28666687  111.38700104    1.73000002    2.67000008
   18.28972244  103.40399933    1.73000002    2.67000008
   18.29111099  112.14900208    1.73000002    2.67000008
   18.29333305  108.44699860    1.73000002    2.67000008
   18.29666710  104.42900085    1.73000002    2.67000008
   18.29999924  107.62500000    1.73000002    2.67000008
   18.30583191  107.62500000    1.73000002    2.67000008
   18.30999947  106.50299835    1.73000002    2.67000008
   18.31333351  110.94400024    1.73000002    2.67000008
   18.31638718  100.66600037    1.73000002    2.67000008
   18.31972313  109.29399872    1.73000002    2.67000008
   18.32305717  107.15499878    1.73000002    2.67000008
   18.32444572  109.95500183    1.73000002    2.67000008
   18.32638931  104.28800201    1.73000002    2.67000008
   18.32972336  106.64299774    1.73000002    2.67000008
   18.33305550  108.85700226    1.73000002    2.67000008
   18.33611107   97.92819977    1.73000002    2.67000008
   18.33944511  114.62400055    1.73000002    2.67000008
   18.34277916  105.14199829    1.73000002    2.67000008
   18.34861183  105.14199829    1.73000002    2.67000008
   18.35277748  102.25599670    1.73000002    2.67000008
   18.35611153   96.42500305    1.73000002    2.67000008
   18.35777855  100.74199677    1.73000002    2.67000008
   18.36000061  107.09899902    1.73000002    2.67000008
   18.36305618  109.69999695    1.73000002    2.67000008
   18.36638832  107.05899811    1.73000002    2.67000008
   18.36944389  105.83200073    1.73000002    2.67000008
   18.37277794  101.34700012    1.73000002    2.67000008
   18.37611198  100.70999908    1.73000002    2.67000008
   18.37916756  101.12200165    1.73000002    2.67000008
   18.38249969   98.66069794    1.73000002    2.67000008
   18.38583374  100.49900055    1.73000002    2.67000008
   18.39166641  100.49900055    1.73000002    2.67000008
   18.39583397  108.93900299    1.73000002    2.67000008
   18.39888954  106.09899902    1.73000002    2.67000008
   18.40222168  103.32599640    1.73000002    2.67000008
   18.40555573  104.13400269    1.73000002    2.67000008
   18.40861130  104.16400146    1.73000002    2.67000008
   18.41194344  102.00499725    1.73000002    2.67000008
   18.41499901   96.37129974    1.73000002    2.67000008
   18.41833305  103.94799805    1.73000002    2.67000008
   18.42166519  111.45700073    1.73000002    2.67000008
   18.42444420   98.38140106    1.73000002    2.67000008
   18.42499924  110.93699646    1.73000002    2.67000008
   18.42833328   97.46549988    1.73000002    2.67000008
   18.43444443   97.46549988    1.73000002    2.67000008
   18.43861008  101.45600128    1.73000002    2.67000008
   18.44166565  108.42400360    1.73000002    2.67000008
   18.44499969  103.10700226    1.73000002    2.67000008
   18.44833183  104.22299957    1.73000002    2.67000008
   18.45138931  107.39900208    1.73000002    2.67000008
   18.45472336  101.49400330    1.73000002    2.67000008
   18.45777893  101.22000122    1.73000002    2.67000008
   18.45833397  106.64499664    1.73000002    2.67000008
   18.46166801  103.74900055    1.73000002    2.67000008
   18.46500015  107.50099945    1.73000002    2.67000008
   18.46805573  103.64800262    1.73000002    2.67000008
   18.47138977  108.02300262    1.73000002    2.67000008
   18.47722244  108.02300262    1.73000002    2.67000008
   18.48139000  104.17199707    1.73000002    2.67000008
   18.48472214  103.67600250    1.73000002    2.67000008
   18.48777771  102.91500092    1.73000002    2.67000008
   18.49111176  108.00199890    1.73000002    2.67000008
   18.49138832  105.59100342    1.73000002    2.67000008
   18.49472237   98.12860107    1.73000002    2.67000008
   18.49805641  102.26999664    1.73000002    2.67000008
   18.50111198   99.83679962    1.73000002    2.67000008
   18.50444412   99.02700043    1.73000002    2.67000008
   18.50777817  101.31999969    1.73000002    2.67000008
   18.51083374  102.02600098    1.73000002    2.67000008
   18.51416588  109.58300018    1.73000002    2.67000008
   18.52000046  109.58300018    1.73000002    2.67000008
   18.52416611  107.63999939    1.73000002    2.67000008
   18.52472115  103.01899719    1.73000002    2.67000008
   18.52805519  108.25700378    1.73000002    2.67000008
   18.53111076  104.56900024    1.73000002    2.67000008
   18.53444481  103.26200104    1.73000002    2.67000008
   18.53777695  109.28900146    1.73000002    2.67000008
   18.54083252  104.45400238    1.73000002    2.67000008
   18.54416656  105.05699921    1.73000002    2.67000008
   18.54749870  104.46299744    1.73000002    2.67000008
   18.55055428  101.09799957    1.73000002    2.67000008
   18.55388832  102.20800018    1.73000002    2.67000008
   18.55722237  105.06099701    1.73000002    2.67000008
   18.55805397  104.56099701    1.73000002    2.67000008
   18.56305504  104.56099701    1.73000002    2.67000008
   18.56722260  111.26899719    1.73000002    2.67000008
   18.57027817   95.77790070    1.73000002    2.67000008
   18.57361221  112.71900177    1.73000002    2.67000008
   18.57666779  108.24400330    1.73000002    2.67000008
   18.58000183  114.08599854    1.73000002    2.67000008
   18.58333397  103.94999695    1.73000002    2.67000008
   18.58638954  109.25900269    1.73000002    2.67000008
   18.58972359  105.36199951    1.73000002    2.67000008
   18.59138870   99.86930084    1.73000002    2.67000008
   18.59333420  101.94300079    1.73000002    2.67000008
   18.59666824  101.87400055    1.73000002    2.67000008
   18.59972191  103.62200165    1.73000002    2.67000008
   18.60583305  103.62200165    1.73000002    2.67000008
   18.61000061   97.06250000    1.73000002    2.67000008
   18.61305618  108.28600311    1.73000002    2.67000008
   18.61638832  101.73400116    1.73000002    2.67000008
   18.61972237  103.72899628    1.73000002    2.67000008
   18.62277794  102.83200073    1.73000002    2.67000008
   18.62472153  107.73999786    1.73000002    2.67000008
   18.62666702  106.18099976    1.73000002    2.67000008
   18.63000107   97.75050354    1.73000002    2.67000008
   18.63305473   96.53649902    1.73000002    2.67000008
   18.63638878  111.21700287    1.73000002    2.67000008
   18.63944435  105.20899963    1.73000002    2.67000008
   18.64277840  106.48500061    1.73000002    2.67000008
   18.64861107  106.48500061    1.73000002    2.67000008
   18.65277672  104.73100281    1.73000002    2.67000008
   18.65611076  102.26499939    1.73000002    2.67000008
   18.65805435  108.21499634    1.73000002    2.67000008
   18.65972137  103.35299683    1.73000002    2.67000008
   18.66305542  109.36499786    1.73000002    2.67000008
   18.66611099  106.75000000    1.73000002    2.67000008
   18.66944313  106.60099792    1.73000002    2.67000008
   18.67249870  105.50399780    1.73000002    2.67000008
   18.67583275  107.13899994    1.73000002    2.67000008
   18.67916679  103.64700317    1.73000002    2.67000008
   18.68222237  107.28600311    1.73000002    2.67000008
   18.68555450   97.49210358    1.73000002    2.67000008
   18.69138718   97.49210358    1.73000002    2.67000008
   18.69555473  101.00700378    1.73000002    2.67000008
   18.69888878  111.58699799    1.73000002    2.67000008
   18.70222282  105.23899841    1.73000002    2.67000008
   18.70527840  109.28399658    1.73000002    2.67000008
   18.70861244  107.28700256    1.73000002    2.67000008
   18.71166801  106.87200165    1.73000002    2.67000008
   18.71500015  110.12599945    1.73000002    2.67000008
   18.71833420  111.99400330    1.73000002    2.67000008
   18.72138977  107.23799896    1.73000002    2.67000008
   18.72472191  109.46399689    1.73000002    2.67000008
   18.72527885  110.44699860    1.73000002    2.67000008
   18.72861099  105.30300140    1.73000002    2.67000008
   18.73444557  105.30300140    1.73000002    2.67000008
   18.73833275  113.16100311    1.73000002    2.67000008
   18.74166679   99.27690125    1.73000002    2.67000008
   18.74500084  101.63300323    1.73000002    2.67000008
   18.74805641  105.66200256    1.73000002    2.67000008
   18.75138855  103.14900208    1.73000002    2.67000008
   18.75472260  105.34899902    1.73000002    2.67000008
   18.75777817  105.10800171    1.73000002    2.67000008
   18.75861168  106.11100006    1.73000002    2.67000008
   18.76138878  107.17700195    1.73000002    2.67000008
   18.76472282  108.48300171    1.73000002    2.67000008
   18.76805496   99.71179962    1.73000002    2.67000008
   18.77111053  103.74299622    1.73000002    2.67000008
   18.77722168  103.74299622    1.73000002    2.67000008
   18.78138924  104.42700195    1.73000002    2.67000008
   18.78444481  103.56400299    1.73000002    2.67000008
   18.78777695  105.50399780    1.73000002    2.67000008
   18.79111099  101.28600311    1.73000002    2.67000008
   18.79194450  104.71499634    1.73000002    2.67000008
   18.79472160  109.30100250    1.73000002    2.67000008
   18.79777718  104.88700104    1.73000002    2.67000008
   18.80111122  106.12500000    1.73000002    2.67000008
   18.80416679  101.36399841    1.73000002    2.67000008
   18.80749893  101.37699890    1.73000002    2.67000008
   18.81083298  104.98799896    1.73000002    2.67000008
   18.81388855  105.24800110    1.73000002    2.67000008
   18.82000160  105.24800110    1.73000002    2.67000008
   18.82416725  101.11199951    1.73000002    2.67000008
   18.82527924  102.38800049    1.73000002    2.67000008
   18.82805634  103.65100098    1.73000002    2.67000008
   18.83111191   95.65799713    1.73000002    2.67000008
   18.83444595   96.10009766    1.73000002    2.67000008
   18.83750153  101.45300293    1.73000002    2.67000008
   18.84083366   99.98069763    1.73000002    2.67000008
   18.84416771  105.59899902    1.73000002    2.67000008
   18.84722328  101.76999664    1.73000002    2.67000008
   18.85055542  101.20300293    1.73000002    2.67000008
   18.85361099   98.70570374    1.73000002    2.67000008
   18.85694504  104.62400055    1.73000002    2.67000008
   18.85861206  101.09300232    1.73000002    2.67000008
   18.86277771  101.09300232    1.73000002    2.67000008
   18.86694527  106.77700043    1.73000002    2.67000008
   18.87027740  104.63700104    1.73000002    2.67000008
   18.87361145  107.73300171    1.73000002    2.67000008
   18.87666702  105.31199646    1.73000002    2.67000008
   18.88000107  101.03199768    1.73000002    2.67000008
   18.88333321   98.65319824    1.73000002    2.67000008
   18.88638878  106.45800018    1.73000002    2.67000008
   18.88972282   99.96700287    1.73000002    2.67000008
   18.89194489  106.51599884    1.73000002    2.67000008
   18.89333344  101.47699738    1.73000002    2.67000008
   18.89638901  104.43199921    1.73000002    2.67000008
   18.89972115  102.00299835    1.73000002    2.67000008
   18.90583229  102.00299835    1.73000002    2.67000008
   18.90999985  102.73699951    1.73000002    2.67000008
   18.91305542   98.68360138    1.73000002    2.67000008
   18.91638756  105.43000031    1.73000002    2.67000008
   18.91944313  105.27400208    1.73000002    2.67000008
   18.92277718  107.06999969    1.73000002    2.67000008
   18.92527771  107.46600342    1.73000002    2.67000008
   18.92666626  105.93900299    1.73000002    2.67000008
   18.92972183  105.14299774    1.73000002    2.67000008
   18.93305397  104.46299744    1.73000002    2.67000008
   18.93610954  108.91000366    1.73000002    2.67000008
   18.93944359  107.74400330    1.73000002    2.67000008
   18.94277763  106.56999969    1.73000002    2.67000008
   18.94861031  106.56999969    1.73000002    2.67000008
   18.95277786  107.81500244    1.73000002    2.67000008
   18.95583344  107.01399994    1.73000002    2.67000008
   18.95861244  108.72799683    1.73000002    2.67000008
   18.95972252  111.72299957    1.73000002    2.67000008
   18.96277809  109.98300171    1.73000002    2.67000008
   18.96611214  106.20300293    1.73000002    2.67000008
   18.96916771  105.05400085    1.73000002    2.67000008
   18.97249985  116.70099640    1.73000002    2.67000008
   18.97583389  102.04399872    1.73000002    2.67000008
   18.97888947  102.25199890    1.73000002    2.67000008
   18.98222351  102.35099792    1.73000002    2.67000008
   18.98527718  101.97799683    1.73000002    2.67000008
   18.99138832  101.97799683    1.73000002    2.67000008
   19.00972176  111.66600037    1.73000002    2.67000008
   19.01305580  120.59700012    1.73000002    2.67000008
   19.01638794  107.09600067    1.73000002    2.67000008
   19.01944351  118.65100098    1.73000002    2.67000008
   19.02277756  117.06500244    1.73000002    2.67000008
   19.02583313  107.27200317    1.73000002    2.67000008
   19.02916718  106.04699707    1.73000002    2.67000008
   19.03444481  106.04699707    1.73000002    2.67000008
   19.03861046  110.55300140    1.73000002    2.67000008
   19.04194450   98.23049927    1.73000002    2.67000008
   19.04277802  106.93299866    1.73000002    2.67000008
   19.04555511  104.07800293    1.73000002    2.67000008
   19.04888916  100.38600159    1.73000002    2.67000008
   19.05194283  104.61299896    1.73000002    2.67000008
   19.05527687  107.55000305    1.73000002    2.67000008
   19.05833244  109.67800140    1.73000002    2.67000008
   19.06166649  112.34200287    1.73000002    2.67000008
   19.06499863  110.73200226    1.73000002    2.67000008
   19.06805611  107.22399902    1.73000002    2.67000008
   19.07139015  103.71800232    1.73000002    2.67000008
   19.07722282  103.71800232    1.73000002    2.67000008
   19.08139038  110.57900238    1.73000002    2.67000008
   19.08472252  113.01599884    1.73000002    2.67000008
   19.08805656  109.61000061    1.73000002    2.67000008
   19.09111214  105.87699890    1.73000002    2.67000008
   19.09444427  104.49299622    1.73000002    2.67000008
   19.09777832  112.69499969    1.73000002    2.67000008
   19.10083389  106.91000366    1.73000002    2.67000008
   19.10416794  101.64099884    1.73000002    2.67000008
   19.10722351  106.49500275    1.73000002    2.67000008
   19.10944557  104.25599670    1.73000002    2.67000008
   19.11083412  114.38400269    1.73000002    2.67000008
   19.11416626  102.52500153    1.73000002    2.67000008
   19.12027740  102.52500153    1.73000002    2.67000008
   19.12444496   98.50669861    1.73000002    2.67000008
   19.12750053  102.94400024    1.73000002    2.67000008
   19.13083267   99.65000153    1.73000002    2.67000008
   19.13416672  103.61100006    1.73000002    2.67000008
   19.13722229  104.73300171    1.73000002    2.67000008
   19.14055634  108.95800018    1.73000002    2.67000008
   19.14277840  100.10600281    1.73000002    2.67000008
   19.14416695  103.90100098    1.73000002    2.67000008
   19.14749908  105.32399750    1.73000002    2.67000008
   19.15055466  101.97100067    1.73000002    2.67000008
   19.15388870  101.33999634    1.73000002    2.67000008
   19.15694427  106.70200348    1.73000002    2.67000008
   19.16305542  106.70200348    1.73000002    2.67000008
   19.16722107   97.01920319    1.73000002    2.67000008
   19.17027664   99.34539795    1.73000002    2.67000008
   19.17361069  106.82599640    1.73000002    2.67000008
   19.17611122  101.32900238    1.73000002    2.67000008
   19.17722130  104.47799683    1.73000002    2.67000008
   19.18055534  100.78399658    1.73000002    2.67000008
   19.18361092  100.80400085    1.73000002    2.67000008
   19.18694305  106.06199646    1.73000002    2.67000008
   19.18999863   97.82589722    1.73000002    2.67000008
   19.19333267   98.50640106    1.73000002    2.67000008
   19.19666672  100.43099976    1.73000002    2.67000008
   19.19972038   98.64880371    1.73000002    2.67000008
   19.20583344   98.64880371    1.73000002    2.67000008
   19.21000099  100.24199677    1.73000002    2.67000008
   19.21333504   98.91280365    1.73000002    2.67000008
   19.21638870  106.58999634    1.73000002    2.67000008
   19.21972275  102.30000305    1.73000002    2.67000008
   19.22305679  105.43699646    1.73000002    2.67000008
   19.22611237  110.22899628    1.73000002    2.67000008
   19.22944450  108.56300354    1.73000002    2.67000008
   19.23250008   99.43589783    1.73000002    2.67000008
   19.23583412  101.58200073    1.73000002    2.67000008
   19.23916626  106.86199951    1.73000002    2.67000008
   19.24222183   97.15110016    1.73000002    2.67000008
   19.24277878  101.27200317    1.73000002    2.67000008
   19.24888992  101.27200317    1.73000002    2.67000008
   19.25277710  100.75199890    1.73000002    2.67000008
   19.25611115  106.27300262    1.73000002    2.67000008
   19.25944519   98.65180206    1.73000002    2.67000008
   19.26250076   99.36990356    1.73000002    2.67000008
   19.26583290  101.69899750    1.73000002    2.67000008
   19.26888847  103.55500031    1.73000002    2.67000008
   19.27222252  101.08399963    1.73000002    2.67000008
   19.27555466  101.76699829    1.73000002    2.67000008
   19.27611160  101.15499878    1.73000002    2.67000008
   19.27916718  108.01699829    1.73000002    2.67000008
   19.28249931   98.73729706    1.73000002    2.67000008
   19.28555489   99.36820221    1.73000002    2.67000008
   19.29166603   99.36820221    1.73000002    2.67000008
   19.29583359  100.74199677    1.73000002    2.67000008
   19.29888916  105.50900269    1.73000002    2.67000008
   19.30222130   97.92230225    1.73000002    2.67000008
   19.30527687  108.66899872    1.73000002    2.67000008
   19.30861092  105.43699646    1.73000002    2.67000008
   19.30944443  106.55799866    1.73000002    2.67000008
   19.31222153  102.54699707    1.73000002    2.67000008
   19.31555557  108.42400360    1.73000002    2.67000008
   19.31861115  110.68299866    1.73000002    2.67000008
   19.32194519  105.01399994    1.73000002    2.67000008
   19.32527924  109.24700165    1.73000002    2.67000008
   19.32833481  104.19000244    1.73000002    2.67000008
   19.33444595  104.19000244    1.73000002    2.67000008
   19.33861160  102.23799896    1.73000002    2.67000008
   19.34166718  104.04299927    1.73000002    2.67000008
   19.34277916  108.58100128    1.73000002    2.67000008
   19.34527779   97.82559967    1.73000002    2.67000008
   19.34861183  104.71499634    1.73000002    2.67000008
   19.35166740  108.68000031    1.73000002    2.67000008
   19.35499954  111.28399658    1.73000002    2.67000008
   19.35833359  110.80500031    1.73000002    2.67000008
   19.36138916  103.53700256    1.73000002    2.67000008
   19.36472321  106.31099701    1.73000002    2.67000008
   19.36777878  107.10299683    1.73000002    2.67000008
   19.37111092  104.24400330    1.73000002    2.67000008
   19.37722206  104.24400330    1.73000002    2.67000008
   19.38138962  103.47599792    1.73000002    2.67000008
   19.38472176  103.79000092    1.73000002    2.67000008
   19.38777733  110.26499939    1.73000002    2.67000008
   19.39111137  104.03399658    1.73000002    2.67000008
   19.39444351  100.15299988    1.73000002    2.67000008
   19.39749908  104.63400269    1.73000002    2.67000008
   19.40083313  107.67299652    1.73000002    2.67000008
   19.40416718  104.66300201    1.73000002    2.67000008
   19.40722275  108.04699707    1.73000002    2.67000008
   19.40944481  107.74600220    1.73000002    2.67000008
   19.41083336  102.28199768    1.73000002    2.67000008
   19.41416550  105.99099731    1.73000002    2.67000008
   19.42027664  105.99099731    1.73000002    2.67000008
   19.42416573   80.95490265    1.73000002    2.67000008
   19.42749977  102.57800293    1.73000002    2.67000008
   19.43083191  113.56400299    1.73000002    2.67000008
   19.43388748  104.24199677    1.73000002    2.67000008
   19.43722153  100.76699829    1.73000002    2.67000008
   19.44027710  111.04000092    1.73000002    2.67000008
   19.44277763   96.86360168    1.73000002    2.67000008
   19.44388771   83.01840210    1.73000002    2.67000008
   19.44722176   98.64170074    1.73000002    2.67000008
   19.45027924  105.17600250    1.73000002    2.67000008
   19.45361137  107.09799957    1.73000002    2.67000008
   19.45694542  105.10199738    1.73000002    2.67000008
   19.46305656  105.10199738    1.73000002    2.67000008
   19.46722221  111.16899872    1.73000002    2.67000008
   19.47027779  110.21499634    1.73000002    2.67000008
   19.47361183  107.25000000    1.73000002    2.67000008
   19.47638893  107.03500366    1.73000002    2.67000008
   19.47722244  105.87999725    1.73000002    2.67000008
   19.48055649  106.65799713    1.73000002    2.67000008
   19.48361206  110.30699921    1.73000002    2.67000008
   19.48694420  110.99199677    1.73000002    2.67000008
   19.49027824  110.82499695    1.73000002    2.67000008
   19.49333382  105.58399963    1.73000002    2.67000008
   19.49666786  107.00199890    1.73000002    2.67000008
   19.49972153  106.02899933    1.73000002    2.67000008
   19.50583267  106.02899933    1.73000002    2.67000008
   19.51000023  103.49900055    1.73000002    2.67000008
   19.51305580  109.31400299    1.73000002    2.67000008
   19.51638794  107.07399750    1.73000002    2.67000008
   19.51972198  107.23200226    1.73000002    2.67000008
   19.52277756  114.54100037    1.73000002    2.67000008
   19.52611160  114.35700226    1.73000002    2.67000008
   19.52944374  117.50800323    1.73000002    2.67000008
   19.53249931  122.75199890    1.73000002    2.67000008
   19.53583336  124.19999695    1.73000002    2.67000008
   19.53888893  113.92500305    1.73000002    2.67000008
   19.54222107  124.59799957    1.73000002    2.67000008
   19.54305458  111.58599854    1.73000002    2.67000008
   19.54861069  111.58599854    1.73000002    2.67000008
   19.55277634  135.35099792    1.73000002    2.67000008
   19.55611038  133.74200439    1.73000002    2.67000008
   19.55916595  146.07899475    1.73000002    2.67000008
   19.56250000  137.24800110    1.73000002    2.67000008
   19.56583214  129.56700134    1.73000002    2.67000008
   19.56888962  124.13099670    1.73000002    2.67000008
   19.57222366  139.91200256    1.73000002    2.67000008
   19.57555580  122.38600159    1.73000002    2.67000008
   19.57638931  108.70700073    1.73000002    2.67000008
   19.57916832  140.30700684    1.73000002    2.67000008
   19.58250046  143.85099792    1.73000002    2.67000008
   19.58583450  128.33900452    1.73000002    2.67000008
   19.59166718  128.33900452    1.73000002    2.67000008
   19.59555626  135.27799988    1.73000002    2.67000008
   19.59889030  132.69999695    1.73000002    2.67000008
   19.60222244  129.85899353    1.73000002    2.67000008
   19.60527802  121.77700043    1.73000002    2.67000008
   19.60861206  129.87300110    1.73000002    2.67000008
   19.60972214  138.33399963    1.73000002    2.67000008
   19.61222267  135.71800232    1.73000002    2.67000008
   19.61555672  140.51699829    1.73000002    2.67000008
   19.61861038  138.33900452    1.73000002    2.67000008
   19.62194443  137.08599854    1.73000002    2.67000008
   19.62527847  130.61099243    1.73000002    2.67000008
   19.62833405  123.73500061    1.73000002    2.67000008
   19.63444519  123.73500061    1.73000002    2.67000008
   19.63861084  115.90699768    1.73000002    2.67000008
   19.64166641  131.41299438    1.73000002    2.67000008
   19.64305496  117.32299805    1.73000002    2.67000008
   19.64527702  117.60399628    1.73000002    2.67000008
   19.64861107  132.52900696    1.73000002    2.67000008
   19.65194321  121.06500244    1.73000002    2.67000008
   19.65499878  115.67199707    1.73000002    2.67000008
   19.65833282  122.30100250    1.73000002    2.67000008
   19.66166687  120.60399628    1.73000002    2.67000008
   19.66472244  119.57800293    1.73000002    2.67000008
   19.66805458  118.41000366    1.73000002    2.67000008
   19.67111015  118.71900177    1.73000002    2.67000008
   19.67722130  118.71900177    1.73000002    2.67000008
   19.68138885  124.12500000    1.73000002    2.67000008
   19.68444443  117.94400024    1.73000002    2.67000008
   19.68777657  114.66699982    1.73000002    2.67000008
   19.69111061  117.91999817    1.73000002    2.67000008
   19.69416618  117.24600220    1.73000002    2.67000008
   19.69749832  117.62999725    1.73000002    2.67000008
   19.70083427  119.94400024    1.73000002    2.67000008
   19.70388985  122.69699860    1.73000002    2.67000008
   19.70722389  117.65299988    1.73000002    2.67000008
   19.70972252  116.11199951    1.73000002    2.67000008
   19.71083450  119.36799622    1.73000002    2.67000008
   19.71416664  124.73600006    1.73000002    2.67000008
   19.72000122  124.73600006    1.73000002    2.67000008
   19.72416687  124.74500275    1.73000002    2.67000008
   19.72750092  122.37500000    1.73000002    2.67000008
   19.73055649  115.54100037    1.73000002    2.67000008
   19.73388863  117.94599915    1.73000002    2.67000008
   19.73722267  123.92400360    1.73000002    2.67000008
   19.74027824  120.14099884    1.73000002    2.67000008
   19.74305534  118.44599915    1.73000002    2.67000008
   19.74388885  120.71700287    1.73000002    2.67000008
   19.74722290  119.33799744    1.73000002    2.67000008
   19.75055504  113.70400238    1.73000002    2.67000008
   19.75361061  112.73600006    1.73000002    2.67000008
   19.75694466  117.37799835    1.73000002    2.67000008
   19.76277733  117.37799835    1.73000002    2.67000008
   19.76694489  112.57700348    1.73000002    2.67000008
   19.77027702  114.53500366    1.73000002    2.67000008
   19.77361107  115.23400116    1.73000002    2.67000008
   19.77638817  115.56800079    1.73000002    2.67000008
   19.77694511  115.45400238    1.73000002    2.67000008
   19.78027725  119.82299805    1.73000002    2.67000008
   19.78361130  112.37500000    1.73000002    2.67000008
   19.78666687  118.03700256    1.73000002    2.67000008
   19.78999901  121.41600037    1.73000002    2.67000008
   19.79305458  111.18000031    1.73000002    2.67000008
   19.79638863  119.90200043    1.73000002    2.67000008
   19.79972076  116.59799957    1.73000002    2.67000008
   19.80583191  116.59799957    1.73000002    2.67000008
   19.80999947  119.21700287    1.73000002    2.67000008
   19.81305504  124.65100098    1.73000002    2.67000008
   19.81638718  111.71499634    1.73000002    2.67000008
   19.81944466  115.38400269    1.73000002    2.67000008
   19.82277870  119.63999939    1.73000002    2.67000008
   19.82611275  112.96199799    1.73000002    2.67000008
   19.82916832  108.12100220    1.73000002    2.67000008
   19.83250046  114.22599792    1.73000002    2.67000008
   19.83583450  109.88200378    1.73000002    2.67000008
   19.83889008  119.09400177    1.73000002    2.67000008
   19.84222221  107.51699829    1.73000002    2.67000008
   19.84305573  106.71700287    1.73000002    2.67000008
   19.84861183  106.71700287    1.73000002    2.67000008
   19.85277748  112.06400299    1.73000002    2.67000008
   19.85583305  112.70899963    1.73000002    2.67000008
   19.85916710  109.18900299    1.73000002    2.67000008
   19.86250114  112.58899689    1.73000002    2.67000008
   19.86555672  113.30699921    1.73000002    2.67000008
   19.86888885  105.47200012    1.73000002    2.67000008
   19.87222290  104.62999725    1.73000002    2.67000008
   19.87527847  107.58200073    1.73000002    2.67000008
   19.87638855  101.36799622    1.73000002    2.67000008
   19.87888908  108.57800293    1.73000002    2.67000008
   19.88222313  111.69200134    1.73000002    2.67000008
   19.88555527  110.85399628    1.73000002    2.67000008
   19.89138794  110.85399628    1.73000002    2.67000008
   19.89555550  110.45700073    1.73000002    2.67000008
   19.89888954  113.91000366    1.73000002    2.67000008
   19.90194321  115.75199890    1.73000002    2.67000008
   19.90527725  114.79100037    1.73000002    2.67000008
   19.90861130  125.97699738    1.73000002    2.67000008
   19.90972137  118.04000092    1.73000002    2.67000008
   19.91194344  118.20700073    1.73000002    2.67000008
   19.91527748  105.25000000    1.73000002    2.67000008
   19.91860962  118.35500336    1.73000002    2.67000008
   19.92166519  115.25900269    1.73000002    2.67000008
   19.92499924  106.12000275    1.73000002    2.67000008
   19.92805481  115.32499695    1.73000002    2.67000008
   19.93416595  115.32499695    1.73000002    2.67000008
   19.93833160  107.04799652    1.73000002    2.67000008
   19.94166565  108.06300354    1.73000002    2.67000008
   19.94305420  108.29599762    1.73000002    2.67000008
   19.94527626  111.25900269    1.73000002    2.67000008
   19.94861031  108.51999664    1.73000002    2.67000008
   19.95194435  105.88600159    1.73000002    2.67000008
   19.95499992  116.86000061    1.73000002    2.67000008
   19.95833397  109.17700195    1.73000002    2.67000008
   19.96138954  122.31900024    1.73000002    2.67000008
   19.96472359  116.36000061    1.73000002    2.67000008
   19.96805573  105.73000336    1.73000002    2.67000008
   19.97111130  113.44599915    1.73000002    2.67000008
   19.97722244  113.44599915    1.73000002    2.67000008
   19.98139000  112.40899658    1.73000002    2.67000008
   19.98444557  127.58300018    1.73000002    2.67000008
   19.98777771   98.24169922    1.73000002    2.67000008
   19.99083328  121.39299774    1.73000002    2.67000008
   19.99416733  111.68299866    1.73000002    2.67000008
   19.99749947  115.52300262    1.73000002    2.67000008
   20.00055504  113.92099762    1.73000002    2.67000008
   20.00388908  110.50099945    1.73000002    2.67000008
   20.00722313  116.71299744    1.73000002    2.67000008
   20.00972176  124.34600067    1.73000002    2.67000008
   20.03027725  124.34600067    1.73000002    2.67000008
   20.03444481  111.72399902    1.73000002    2.67000008
   20.03777695  114.46600342    1.73000002    2.67000008
   20.04083252  109.42099762    1.73000002    2.67000008
   20.04305458  106.54900360    1.73000002    2.67000008
   20.04444313  115.34799957    1.73000002    2.67000008
   20.04777718   98.72149658    1.73000002    2.67000008
   20.05111122  112.10399628    1.73000002    2.67000008
   20.05416679  116.64299774    1.73000002    2.67000008
   20.05749893  111.82199860    1.73000002    2.67000008
   20.06083298  115.70999908    1.73000002    2.67000008
   20.06388855  116.11900330    1.73000002    2.67000008
   20.06722260  115.80500031    1.73000002    2.67000008
   20.07305717  115.80500031    1.73000002    2.67000008
   20.07722282   99.61229706    1.73000002    2.67000008
   20.08027840  105.62799835    1.73000002    2.67000008
   20.08361244  108.68599701    1.73000002    2.67000008
   20.08694458  103.03399658    1.73000002    2.67000008
   20.09000015  109.35600281    1.73000002    2.67000008
   20.09333420  110.40699768    1.73000002    2.67000008
   20.09666824   99.69090271    1.73000002    2.67000008
   20.09972191  113.56099701    1.73000002    2.67000008
   20.10305595  111.14800262    1.73000002    2.67000008
   20.10611153  113.06600189    1.73000002    2.67000008
   20.10944557  116.97699738    1.73000002    2.67000008
   20.11000061  106.42199707    1.73000002    2.67000008
   20.11583328  106.42199707    1.73000002    2.67000008
   20.12000084  103.72000122    1.73000002    2.67000008
   20.12333298  106.88800049    1.73000002    2.67000008
   20.12638855  106.28500366    1.73000002    2.67000008
   20.12972260  116.33000183    1.73000002    2.67000008
   20.13305473  107.53299713    1.73000002    2.67000008
   20.13611031  117.31900024    1.73000002    2.67000008
   20.13944435  115.51599884    1.73000002    2.67000008
   20.14249992  117.94499969    1.73000002    2.67000008
   20.14333344  116.27700043    1.73000002    2.67000008
   20.14638901  121.39299774    1.73000002    2.67000008
   20.14944458  117.55599976    1.73000002    2.67000008
   20.15277672  121.20300293    1.73000002    2.67000008
   20.15861130  121.20300293    1.73000002    2.67000008
   20.16277695  125.39800262    1.73000002    2.67000008
   20.16611099  113.82199860    1.73000002    2.67000008
   20.16944313  107.36299896    1.73000002    2.67000008
   20.17249870  102.36299896    1.73000002    2.67000008
   20.17583275  102.68900299    1.73000002    2.67000008
   20.17666626  114.30000305    1.73000002    2.67000008
   20.17944336  110.56500244    1.73000002    2.67000008
   20.18249893  110.78800201    1.73000002    2.67000008
   20.18583298  111.79900360    1.73000002    2.67000008
   20.18916512  109.90100098    1.73000002    2.67000008
   20.19222069  105.69799805    1.73000002    2.67000008
   20.19555473  108.68599701    1.73000002    2.67000008
   20.20166779  108.68599701    1.73000002    2.67000008
   20.20583344  111.01599884    1.73000002    2.67000008
   20.20888901  118.63099670    1.73000002    2.67000008
   20.21000099  117.50299835    1.73000002    2.67000008
   20.21277809  114.04199982    1.73000002    2.67000008
   20.21583366  117.09899902    1.73000002    2.67000008
   20.21916771  119.28500366    1.73000002    2.67000008
   20.22249985  117.18099976    1.73000002    2.67000008
   20.22555542  119.12599945    1.73000002    2.67000008
   20.22888947  108.86000061    1.73000002    2.67000008
   20.23194504  120.16500092    1.73000002    2.67000008
   20.23527718  106.76000214    1.73000002    2.67000008
   20.23861122  108.18299866    1.73000002    2.67000008
   20.24444389  108.18299866    1.73000002    2.67000008
   20.24861145  103.68499756    1.73000002    2.67000008
   20.25166702  108.41500092    1.73000002    2.67000008
   20.25499916  109.08499908    1.73000002    2.67000008
   20.25833321  105.44699860    1.73000002    2.67000008
   20.26138878  114.82800293    1.73000002    2.67000008
   20.26472282  111.68399811    1.73000002    2.67000008
   20.26805496  119.94699860    1.73000002    2.67000008
   20.27111053  110.76300049    1.73000002    2.67000008
   20.27444458  117.38500214    1.73000002    2.67000008
   20.27666664  107.35700226    1.73000002    2.67000008
   20.27805519  119.21600342    1.73000002    2.67000008
   20.28111076  116.37599945    1.73000002    2.67000008
   20.28722191  116.37599945    1.73000002    2.67000008
   20.29138756  129.44299316    1.73000002    2.67000008
   20.29472160  107.71499634    1.73000002    2.67000008
   20.29777718  118.58399963    1.73000002    2.67000008
   20.30111122  120.57499695    1.73000002    2.67000008
   20.30444336  116.12599945    1.73000002    2.67000008
   20.30749893  111.02100372    1.73000002    2.67000008
   20.30999947  109.31300354    1.73000002    2.67000008
   20.31138802  118.19699860    1.73000002    2.67000008
   20.31444359  114.26300049    1.73000002    2.67000008
   20.31777954  111.57700348    1.73000002    2.67000008
   20.32111168  103.03800201    1.73000002    2.67000008
   20.32416725  107.13800049    1.73000002    2.67000008
   20.33000183  107.13800049    1.73000002    2.67000008
   20.33416748  103.92400360    1.73000002    2.67000008
   20.33750153  104.61900330    1.73000002    2.67000008
   20.34055710  108.14800262    1.73000002    2.67000008
   20.34333420  109.14900208    1.73000002    2.67000008
   20.34444427  111.30100250    1.73000002    2.67000008
   20.34749985  110.05000305    1.73000002    2.67000008
   20.35083389  107.66999817    1.73000002    2.67000008
   20.35416794  112.46299744    1.73000002    2.67000008
   20.35722351  111.52400208    1.73000002    2.67000008
   20.36055565  111.61199951    1.73000002    2.67000008
   20.36361122  104.38099670    1.73000002    2.67000008
   20.36694527  107.36100006    1.73000002    2.67000008
   20.37305641  107.36100006    1.73000002    2.67000008
   20.37694550  110.96700287    1.73000002    2.67000008
   20.38027763  113.42400360    1.73000002    2.67000008
   20.38361168  108.57399750    1.73000002    2.67000008
   20.38666725  113.01599884    1.73000002    2.67000008
   20.38999939  107.95600128    1.73000002    2.67000008
   20.39333344  108.35399628    1.73000002    2.67000008
   20.39638901  100.01300049    1.73000002    2.67000008
   20.39972115  108.08200073    1.73000002    2.67000008
   20.40277672  107.49099731    1.73000002    2.67000008
   20.40611076  103.86699677    1.73000002    2.67000008
   20.40944481  111.22899628    1.73000002    2.67000008
   20.40999985   98.29840088    1.73000002    2.67000008
   20.41583252   98.29840088    1.73000002    2.67000008
   20.42000008  104.80500031    1.73000002    2.67000008
   20.42305565  109.95300293    1.73000002    2.67000008
   20.42638779  104.46900177    1.73000002    2.67000008
   20.42972183  106.54399872    1.73000002    2.67000008
   20.43277740  101.67099762    1.73000002    2.67000008
   20.43610954  111.24099731    1.73000002    2.67000008
   20.43944359   98.17810059    1.73000002    2.67000008
   20.44249916  103.49500275    1.73000002    2.67000008
   20.44333267  101.27799988    1.73000002    2.67000008
   20.44638824  101.33599854    1.73000002    2.67000008
   20.44944382  108.45099640    1.73000002    2.67000008
   20.45277786  106.39199829    1.73000002    2.67000008
   20.45861244  106.39199829    1.73000002    2.67000008
   20.46277809  108.45099640    1.73000002    2.67000008
   20.46611214  104.81500244    1.73000002    2.67000008
   20.46916771  109.63500214    1.73000002    2.67000008
   20.47249985  105.19000244    1.73000002    2.67000008
   20.47555542  102.36000061    1.73000002    2.67000008
   20.47666740  119.52300262    1.73000002    2.67000008
   20.47944450  105.08100128    1.73000002    2.67000008
   20.48250008  107.86799622    1.73000002    2.67000008
   20.48583412  101.57499695    1.73000002    2.67000008
   20.48916626  103.52999878    1.73000002    2.67000008
   20.49222183  113.75099945    1.73000002    2.67000008
   20.49555588   99.19969940    1.73000002    2.67000008
   20.50138855   99.19969940    1.73000002    2.67000008
   20.50555611   97.82589722    1.73000002    2.67000008
   20.50888824  101.89299774    1.73000002    2.67000008
   20.51000023  104.09300232    1.73000002    2.67000008
   20.51250076  108.07599640    1.73000002    2.67000008
   20.51583290  104.14600372    1.73000002    2.67000008
   20.51888847  102.25800323    1.73000002    2.67000008
   20.52222252  107.20400238    1.73000002    2.67000008
   20.52555466  102.92299652    1.73000002    2.67000008
   20.52861023   98.11039734    1.73000002    2.67000008
   20.53194427  109.34300232    1.73000002    2.67000008
   20.53499985  104.95500183    1.73000002    2.67000008
   20.53833199  113.62999725    1.73000002    2.67000008
   20.54444313  113.62999725    1.73000002    2.67000008
   20.54833221  104.01699829    1.73000002    2.67000008
   20.55166626  105.14700317    1.73000002    2.67000008
   20.55499840  101.85800171    1.73000002    2.67000008
   20.55805397  101.58499908    1.73000002    2.67000008
   20.56138802  111.11699677    1.73000002    2.67000008
   20.56472206  102.20400238    1.73000002    2.67000008
   20.56777954  106.44799805    1.73000002    2.67000008
   20.57111168  104.33999634    1.73000002    2.67000008
   20.57416725   97.69940186    1.73000002    2.67000008
   20.57666779   97.03199768    1.73000002    2.67000008
   20.57805634  100.09200287    1.73000002    2.67000008
   20.58111191  103.49199677    1.73000002    2.67000008
   20.58722305  103.49199677    1.73000002    2.67000008
   20.59138870  102.65399933    1.73000002    2.67000008
   20.59444427  108.88400269    1.73000002    2.67000008
   20.59777832  104.25599670    1.73000002    2.67000008
   20.60111237  105.83599854    1.73000002    2.67000008
   20.60416794   98.62930298    1.73000002    2.67000008
   20.60750008   99.45800018    1.73000002    2.67000008
   20.61000061  106.64399719    1.73000002    2.67000008
   20.61111069  105.38099670    1.73000002    2.67000008
   20.61416626  103.60700226    1.73000002    2.67000008
   20.61750031  104.24800110    1.73000002    2.67000008
   20.62083435  111.45300293    1.73000002    2.67000008
   20.62388992  103.50299835    1.73000002    2.67000008
   20.63000107  103.50299835    1.73000002    2.67000008
   20.63416672  107.02400208    1.73000002    2.67000008
   20.63750076   96.44180298    1.73000002    2.67000008
   20.64055634   99.62079620    1.73000002    2.67000008
   20.64333344  101.75000000    1.73000002    2.67000008
   20.64416695  101.90899658    1.73000002    2.67000008
   20.64722252  101.69999695    1.73000002    2.67000008
   20.65055466  103.55999756    1.73000002    2.67000008
   20.65388870   99.97820282    1.73000002    2.67000008
   20.65694427   99.60279846    1.73000002    2.67000008
   20.66027832  104.58699799    1.73000002    2.67000008
   20.66361046  109.12799835    1.73000002    2.67000008
   20.66666603  103.81400299    1.73000002    2.67000008
   20.67277718  103.81400299    1.73000002    2.67000008
   20.67694473  101.97299957    1.73000002    2.67000008
   20.68027687  108.19300079    1.73000002    2.67000008
   20.68361092  103.65899658    1.73000002    2.67000008
   20.68666649  109.10399628    1.73000002    2.67000008
   20.68999863  103.78199768    1.73000002    2.67000008
   20.69305420  101.85700226    1.73000002    2.67000008
   20.69638824  112.79699707    1.73000002    2.67000008
   20.69972038  103.94599915    1.73000002    2.67000008
   20.70277786  111.20700073    1.73000002    2.67000008
   20.70611191  112.56199646    1.73000002    2.67000008
   20.70944595  105.88999939    1.73000002    2.67000008
   20.71000099  104.55200195    1.73000002    2.67000008
   20.71583366  104.55200195    1.73000002    2.67000008
   20.71972275  102.43699646    1.73000002    2.67000008
   20.72305679  103.16699982    1.73000002    2.67000008
   20.72638893  105.00599670    1.73000002    2.67000008
   20.72944450   98.76029968    1.73000002    2.67000008
   20.73277855  105.86599731    1.73000002    2.67000008
   20.73611069  102.21399689    1.73000002    2.67000008
   20.73916626  107.48600006    1.73000002    2.67000008
   20.74250031  103.01999664    1.73000002    2.67000008
   20.74333382  107.27400208    1.73000002    2.67000008
   20.74611092  106.03800201    1.73000002    2.67000008
   20.74944496  103.79100037    1.73000002    2.67000008
   20.75250053  100.37999725    1.73000002    2.67000008
   20.75861168  100.37999725    1.73000002    2.67000008
   20.76277733   99.25910187    1.73000002    2.67000008
   20.76583290   99.65380096    1.73000002    2.67000008
   20.76916695   98.26609802    1.73000002    2.67000008
   20.77249908  105.03299713    1.73000002    2.67000008
   20.77555466  101.85399628    1.73000002    2.67000008
   20.77666664  105.12500000    1.73000002    2.67000008
   20.77916718  104.91500092    1.73000002    2.67000008
   20.78249931   94.54900360    1.73000002    2.67000008
   20.78555489   98.78869629    1.73000002    2.67000008
   20.78888893  101.29599762    1.73000002    2.67000008
   20.79194450  107.56199646    1.73000002    2.67000008
   20.79527664   96.76080322    1.73000002    2.67000008
   20.80138779   96.76080322    1.73000002    2.67000008
   20.80555534   99.10759735    1.73000002    2.67000008
   20.80888748   95.83599854    1.73000002    2.67000008
   20.80999947  100.93099976    1.73000002    2.67000008
   20.81250000   98.38580322    1.73000002    2.67000008
   20.81583214  107.33999634    1.73000002    2.67000008
   20.81888962   99.98059845    1.73000002    2.67000008
   20.82222366  106.83100128    1.73000002    2.67000008
   20.82527924  104.40699768    1.73000002    2.67000008
   20.82861137  106.92900085    1.73000002    2.67000008
   20.83194542  102.05300140    1.73000002    2.67000008
   20.83500099  110.79499817    1.73000002    2.67000008
   20.83833313  108.30799866    1.73000002    2.67000008
   20.84416771  108.30799866    1.73000002    2.67000008
   20.84833336  105.04799652    1.73000002    2.67000008
   20.85166740  106.82499695    1.73000002    2.67000008
   20.85472298  106.02999878    1.73000002    2.67000008
   20.85805511  100.88099670    1.73000002    2.67000008
   20.86138916  101.10600281    1.73000002    2.67000008
   20.86444473   98.92169952    1.73000002    2.67000008
   20.86777878  105.46199799    1.73000002    2.67000008
   20.87111092   99.49749756    1.73000002    2.67000008
   20.87416649  108.13800049    1.73000002    2.67000008
   20.87666702  108.91899872    1.73000002    2.67000008
   20.87777710  108.04199982    1.73000002    2.67000008
   20.88111115  100.17400360    1.73000002    2.67000008
   20.88722229  100.17400360    1.73000002    2.67000008
   20.89138794  108.11799622    1.73000002    2.67000008
   20.89444351   95.43689728    1.73000002    2.67000008
   20.89777756  111.76899719    1.73000002    2.67000008
   20.90083313  108.75499725    1.73000002    2.67000008
   20.90416718   93.41899872    1.73000002    2.67000008
   20.90749931  105.93399811    1.73000002    2.67000008
   20.90999985   98.69989777    1.73000002    2.67000008
   20.91110992  106.28800201    1.73000002    2.67000008
   20.91444397  103.49099731    1.73000002    2.67000008
   20.91749954   91.53369904    1.73000002    2.67000008
   20.92083359  103.02600098    1.73000002    2.67000008
   20.92388916  108.72100067    1.73000002    2.67000008
   20.93000031  108.72100067    1.73000002    2.67000008
   20.93416595  104.11799622    1.73000002    2.67000008
   20.93722153  104.22699738    1.73000002    2.67000008
   20.94055557  105.02500153    1.73000002    2.67000008
   20.94333267  104.86100006    1.73000002    2.67000008
   20.94416618  102.96900177    1.73000002    2.67000008
   20.94749832  101.95999908    1.73000002    2.67000008
   20.95055580  113.23999786    1.73000002    2.67000008
   20.95388985  101.22200012    1.73000002    2.67000008
   20.95694542   99.80159760    1.73000002    2.67000008
   20.96027946   82.67040253    1.73000002    2.67000008
   20.96361160   88.10820007    1.73000002    2.67000008
   20.96666718  104.63899994    1.73000002    2.67000008
   20.97277832  104.63899994    1.73000002    2.67000008
   20.97694588   98.50319672    1.73000002    2.67000008
   20.98027802  101.30699921    1.73000002    2.67000008
   20.98333359  105.50900269    1.73000002    2.67000008
   20.98666763  101.44899750    1.73000002    2.67000008
   20.98972321  101.06400299    1.73000002    2.67000008
   20.99305534  101.27799988    1.73000002    2.67000008
   20.99638939   79.24990082    1.73000002    2.67000008
   20.99944496   97.55180359    1.73000002    2.67000008
   21.00277710  101.83200073    1.73000002    2.67000008
   21.00611115  100.20400238    1.73000002    2.67000008
   21.00916672  104.69499969    1.73000002    2.67000008
   21.01000023  102.64199829    1.73000002    2.67000008
   21.01555634  102.64199829    1.73000002    2.67000008
   21.01972198  100.42900085    1.73000002    2.67000008
   21.02305603  100.26999664    1.73000002    2.67000008
   21.02611160  106.49199677    1.73000002    2.67000008
   21.04388809  101.62300110    1.73000002    2.67000008
