    HOUR (UT)   FLARE FACTOR    SKY TESTER    SUN TESTER
   12.33861065   -1.00000000   -1.00000000   -1.00000000
   12.35888958  236.90800476    2.98000002    1.96000004
   12.36416721  193.33700562    2.93000007    1.96000004
   12.36722279  158.84599304    2.91000009    1.96000004
   12.37055588  180.53100586    2.86999989    1.98000002
   12.37361145  181.07000732    2.78999996    1.98000002
   12.37694454  185.66000366    2.71000004    1.98000002
   12.38027763  189.82899475    2.57999992    1.98000002
   12.38333321  204.56100464    2.48000002    1.98000002
   12.38666630  208.04100037    2.40000010    1.98000002
   12.39000034  214.93099976    2.34999990    1.98000002
   12.39222240  205.82299805    2.32999992    1.98000002
   12.39361095  214.32800293    2.30999994    1.98000002
   12.39694405  196.87199402    2.26999998    1.98000002
   12.40027714  183.14500427    2.21000004    2.00000000
   12.40333271  163.33099365    2.11999989    2.00000000
   12.40666676  206.47799683    2.03999996    2.00000000
   12.40999985  251.85000610    1.98000002    2.00000000
   12.41333294  212.61300659    1.50000000    2.00000000
   12.41638851  189.85699463    1.46000004    2.00000000
   12.42055607  212.74000549    1.48000002    2.00000000
   12.42388916  250.12800598    1.46000004    2.00000000
   12.42555618  253.14900208    1.46000004    2.00000000
   12.42722225  244.58999634    1.46000004    2.01999998
   12.43055630  203.49800110    1.44000006    2.01999998
   12.43388939  253.55599976    1.41999996    2.01999998
   12.43694496  260.03799438    1.36000001    2.01999998
   12.44027805  221.60800171    1.34000003    2.01999998
   12.44361115  206.69400024    1.33000004    2.01999998
   12.44666672  180.14500427    1.33000004    2.01999998
   12.44999981  190.99600220    1.33000004    2.01999998
   12.45333290  187.57099915    1.33000004    2.01999998
   12.45638847  187.47799683    1.30999994    2.01999998
   12.45888901  178.00700378    1.30999994    2.03999996
   12.46000004  176.82699585    1.30999994    2.01999998
   12.46333313  204.67999268    1.28999996    2.01999998
   12.46666622  208.44200134    1.26999998    2.03999996
   12.46972179  189.41999817    1.26999998    2.01999998
   12.47305489  196.02799988    1.26999998    2.01999998
   12.47611046  193.22999573    1.26999998    2.01999998
   12.47944355  214.63699341    1.28999996    2.01999998
   12.48277760  228.62300110    1.36000001    2.03999996
   12.48583317  193.36700439    1.38000000    2.03999996
   12.48916721  228.76899719    1.38000000    2.03999996
   12.49222279  230.03999329    1.39999998    2.05999994
   12.49277782  198.91900635    1.39999998    2.05999994
   12.49611092  186.44599915    1.39999998    2.05999994
   12.49944496  206.98800659    1.39999998    2.03999996
   12.50249958  185.36700439    1.39999998    2.05999994
   12.50583363  211.10400391    1.41999996    2.05999994
   12.50888920  201.80099487    1.44000006    2.05999994
   12.51222229  201.09800720    1.44000006    2.05999994
   12.51555538  213.66900635    1.44000006    2.05999994
   12.51861095  193.71600342    1.41999996    2.07999992
   12.52194405  159.99099731    1.41999996    2.07999992
   12.52527714  173.12899780    1.41999996    2.07999992
   12.52583313  190.88499451    1.41999996    2.07999992
   12.52888870  196.15499878    1.41999996    2.07999992
   12.53222179  205.54100037    1.44000006    2.07999992
   12.53555584  187.14300537    1.46000004    2.09999990
   12.53861141  161.15899658    1.48000002    2.09999990
   12.54194450  163.65199280    1.51999998    2.09999990
   12.54527855  183.16600037    1.55999994    2.09999990
   12.54833412  189.97300720    1.58000004    2.09999990
   12.55166721  206.75000000    1.60000002    2.09999990
   12.55472279  180.46800232    1.73000002    2.09999990
   12.55805588  230.37899780    1.76999998    2.09999990
   12.55916691  197.71400452    1.76999998    2.09999990
   12.56166649  196.78199768    1.85000002    2.09999990
   12.56500053  199.19900513    1.89999998    2.09999990
   12.56833363  182.38299561    1.98000002    2.11999989
   12.57138920  200.86099243    2.07999992    2.13000011
   12.57472229  198.72900391    2.15000010    2.13000011
   12.57805538  192.91499329    2.21000004    2.13000011
   12.58111095  206.08200073    2.25000000    2.13000011
   12.58444405  191.49099731    2.32999992    2.13000011
   12.58749962  180.15699768    2.59999990    2.13000011
   12.59083271  175.40400696    3.11999989    2.13000011
   12.59249973  166.18899536    3.34999990    2.13000011
   12.59444427  182.45500183    3.55999994    2.13000011
   12.59777737  178.55099487    3.82999992    2.13000011
   12.60111141  180.73100281    3.91000009    2.15000010
   12.60416698  168.74499512    3.95000005    2.13000011
   12.60750008  168.81300354    3.97000003    2.13000011
   12.61083412  193.89199829    3.84999990    2.11999989
   12.61388969  175.61000061    3.68000007    2.07999992
   12.61722279  160.95500183    3.55999994    2.13000011
   12.62055588  175.67700195    3.50000000    2.17000008
   12.62361145  161.83000183    3.53999996    2.17000008
   12.62583351  156.47300720    3.66000009    2.15000010
   12.62722206  151.00700378    3.84999990    2.17000008
   12.63055611  200.22599792    4.42999983    2.15000010
   12.63388920  172.81799316    4.90999985    2.13000011
   12.63694477  190.46899414    4.90999985    2.13000011
   12.64027786  167.17100525    4.90999985    2.13000011
   12.64361095  188.25999451    4.90999985    2.17000008
   12.64666653  164.61199951    4.90999985    2.19000006
   12.64999962  214.82600403    4.90999985    2.19000006
   12.65305519  233.43800354    4.90999985    2.05999994
   12.65638828  188.02400208    4.90999985    2.09999990
   12.65916634  194.16299438    4.90999985    2.13000011
   12.65999985  204.38000488    4.90999985    2.13000011
   12.66333294  163.06100464    4.90999985    2.15000010
   12.66666698  144.58500671    4.90999985    2.11999989
   12.66972256  220.77099609    4.90999985    2.05999994
   12.67305565  473.03100586    4.90999985    1.86000001
   12.67500019  453.20001221    4.90999985    1.86000001
   12.67638874  266.03298950    4.90999985    1.86000001
   12.67777824  257.12298584    4.90999985    1.89999998
   12.67916679  229.96400452    4.90999985    1.98000002
   12.67916679  204.38000488    4.90999985    2.13000011
   12.67944431  163.06100464    4.90999985    2.15000010
   12.67944431  144.58500671    4.90999985    2.11999989
   12.67944431  220.77099609    4.90999985    2.05999994
   12.67972279  473.03100586    4.90999985    1.86000001
   12.67972279  164.61199951    4.90999985    2.19000006
   12.67972279  214.82600403    4.90999985    2.19000006
   12.68000031  233.43800354    4.90999985    2.05999994
   12.68000031  188.02400208    4.90999985    2.09999990
   12.68055630  227.11399841    4.90999985    2.03999996
   12.68388939  249.84899902    4.90999985    2.09999990
   12.68694496  268.84201050    4.90999985    2.03999996
   12.69027805  207.04899597    4.90999985    2.01999998
   12.69361115  368.70999146    4.90999985    1.98000002
   12.69555569  357.51800537    4.90999985    1.94000006
   12.69694424  322.01800537    4.90999985    1.94000006
   12.69833374  311.10400391    4.90999985    1.91999996
   12.69972229  304.70199585    4.90999985    1.88000000
   12.70111084  366.22601318    4.90999985    1.78999996
   12.70249939  171.49000549    4.90999985    1.78999996
   12.70249939  227.11399841    4.90999985    2.03999996
   12.70249939  249.84899902    4.90999985    2.09999990
   12.70277786  268.84201050    4.90999985    2.03999996
   12.70277786  207.04899597    4.90999985    2.01999998
   12.70277786  368.70999146    4.90999985    1.98000002
   12.70333290  248.44999695    4.90999985    1.78999996
   12.70666695   -1.00000000    4.90999985    1.69000006
   12.71000004  108.99900055    4.90999985    1.44000006
   12.71305561  122.88999939    4.90999985    1.51999998
   12.71638870   90.18820190    4.90999985    1.61000001
   12.72333336   90.18820190    4.90999985    1.55999994
   12.72722149   -1.00000000    4.90999985    1.39999998
   12.73055553   -1.00000000    4.90999985    1.26999998
   12.73388958   -1.00000000    4.90999985    1.19000006
   12.73750019   -1.00000000    4.90999985    1.19000006
   12.74055576   -1.00000000    4.90999985    1.05999994
   12.74388885   -1.00000000    4.90999985    0.98000002
   12.74722290   -1.00000000    4.90999985    0.95999998
   12.75027752   -1.00000000    4.90999985    0.94000000
   12.75361156   -1.00000000    4.90999985    1.05999994
   12.75694466   -1.00000000    4.90999985    1.21000004
   12.76000023   -1.00000000    4.90999985    1.16999996
   12.76999950   -1.00000000    4.90999985    1.05999994
   12.77333355   -1.00000000    4.90999985    1.13000000
   12.77666664   -1.00000000    4.90999985    1.07000005
   12.77972221   -1.00000000    4.90999985    1.05999994
   12.78305531   -1.00000000    4.90999985    1.00000000
   12.78611183   -1.00000000    4.90999985    0.95999998
   12.78944492   -1.00000000    4.90999985    1.00000000
   12.79277802   -1.00000000    4.90999985    0.98000002
   12.79583359   -1.00000000    4.90999985    0.89999998
   13.95444393  143.62300110    4.90999985    2.53999996
   13.95916653  146.12899780    4.90999985    2.53999996
   13.96277714  137.51699829    4.90999985    2.53999996
   13.96611118  144.60200500    4.90999985    2.53999996
   13.96916580  147.57699585    4.90999985    2.53999996
   13.97472191  147.57699585    4.90999985    2.53999996
   13.97888851  160.50000000    4.90999985    2.53999996
   13.98194408  146.87300110    4.90999985    2.53999996
   13.98527813  127.45500183    4.90999985    2.51999998
   13.98777771  162.55799866    4.90999985    2.53999996
   13.98888874  145.27000427    4.90999985    2.55999994
   13.99194431  144.84599304    4.90999985    2.53999996
   13.99527836  134.82499695    4.90999985    2.53999996
   13.99833393  128.61399841    4.90999985    2.53999996
   14.00166702  143.57200623    4.90999985    2.53999996
   14.00500011  138.08599854    4.90999985    2.55999994
   14.00805569  127.61699677    4.90999985    2.53999996
   14.01138878  127.51100159    4.90999985    2.53999996
   14.12611103   -1.00000000   -1.00000000   -1.00000000
   14.22361088   -1.00000000   -1.00000000   -1.00000000
   14.32638836   -1.00000000   -1.00000000   -1.00000000
   14.36250019   76.46749878    4.90999985    2.59999990
   14.36555576  134.61799622    4.90999985    2.59999990
   14.36888885  124.74900055    4.90999985    2.59999990
   14.37222195  119.88300323    4.90999985    2.59999990
   14.37527752  122.58999634    4.90999985    2.59999990
   14.37861156  121.54699707    4.90999985    2.59999990
   14.38277817  121.54699707    4.90999985    2.61999989
   14.38694477  122.98999786    4.90999985    2.59999990
   14.39000034  117.42500305    4.90999985    2.59999990
   14.39333344  114.32199860    4.90999985    2.59999990
   14.39583302  116.53299713    4.90999985    2.59999990
   14.39694405  118.68599701    4.90999985    2.59999990
   14.40027714  120.74800110    4.90999985    2.59999990
   14.40333271  125.85500336    4.90999985    2.59999990
   14.40666676  109.29199982    4.90999985    2.59999990
   14.40999985  108.16999817    4.90999985    2.61999989
   14.41305542  126.96700287    4.90999985    2.59999990
   14.41638851  123.93499756    4.90999985    2.59999990
   14.41972256  135.59399414    4.90999985    2.59999990
   14.42555618  135.59399414    4.90999985    2.59999990
   14.42972279  120.63099670    4.90999985    2.59999990
   14.43305588  119.73200226    4.90999985    2.59999990
   14.43611145  129.10000610    4.90999985    2.59999990
   14.43944454  139.13000488    4.90999985    2.61999989
   14.44250011   95.91020203    4.90999985    2.59999990
   14.44583321  125.86900330    4.90999985    2.59999990
   14.44916630  128.22399902    4.90999985    2.59999990
   14.45222187   95.47019958    4.90999985    2.61999989
   14.45555496  123.28500366    4.90999985    2.61999989
   14.45888901  127.31300354    4.90999985    2.61999989
   14.46194458  123.27600098    4.90999985    2.59999990
   14.46249962  117.80100250    4.90999985    2.59999990
   14.46833324  117.80100250    4.90999985    2.61999989
   14.47249985  137.66799927    4.90999985    2.61999989
   14.47583294  129.55099487    4.90999985    2.61999989
   14.47888851  115.30500031    4.90999985    2.61999989
   14.48222160  137.43099976    4.90999985    2.59999990
   14.48555565  126.97000122    4.90999985    2.59999990
   14.48861122  106.11799622    4.90999985    2.61999989
   14.49194431  100.10399628    4.90999985    2.59999990
   14.49527836  121.99299622    4.90999985    2.59999990
   14.49583340  118.42099762    4.90999985    2.61999989
   14.49888897  128.94599915    4.90999985    2.61999989
   14.50222206  114.19200134    4.90999985    2.61999989
   14.50527763  105.20099640    4.90999985    2.61999989
   14.51138878  105.20099640    4.90999985    2.61999989
   14.51527786  109.17299652    4.90999985    2.59999990
   14.51861095  123.48100281    4.90999985    2.61999989
   14.52194405  115.06099701    4.90999985    2.61999989
   14.52499962  116.54799652    4.90999985    2.59999990
   14.52833271  120.24900055    4.90999985    2.61999989
   14.52916622  111.10700226    4.90999985    2.59999990
   14.53194427  113.20500183    4.90999985    2.61999989
   14.53500080  118.37100220    4.90999985    2.61999989
   14.53833389  119.72000122    4.90999985    2.61999989
   14.54166698  125.00499725    4.90999985    2.61999989
   14.54472256  106.89099884    4.90999985    2.59999990
   14.54805565  117.02999878    4.90999985    2.59999990
   14.55416679  117.02999878    4.90999985    2.61999989
   14.55833340  113.24800110    4.90999985    2.61999989
   14.56138897  108.85399628    4.90999985    2.59999990
   14.56250000  131.42100525    4.90999985    2.59999990
   14.56527805  125.17600250    4.90999985    2.59999990
   14.56833363  117.49199677    4.90999985    2.61999989
   14.57194424  103.75599670    4.90999985    2.64000010
   14.57527733  126.49400330    4.90999985    2.61999989
   14.57861137  109.97100067    4.90999985    2.61999989
   14.58194447  113.80300140    4.90999985    2.61999989
   14.58527756  106.20600128    4.90999985    2.61999989
   14.58861065  106.73799896    4.90999985    2.61999989
   14.59194374  117.63600159    4.90999985    2.61999989
   14.59694386  117.63600159    4.90999985    2.64000010
   14.60111141  114.29100037    4.90999985    2.64000010
   14.60500050  119.75299835    4.90999985    2.61999989
   14.60805607  108.00800323    4.90999985    2.61999989
   14.61138916  106.96199799    4.90999985    2.64000010
   14.61472225   -1.00000000    4.90999985    2.55999994
   14.61777782   -1.00000000    4.90999985    0.88000000
   14.62111092  104.35800171    4.90999985    1.33000004
   14.62444496  111.21900177    4.90999985    2.67000008
   14.62750053  110.19499969    4.90999985    2.64000010
   14.62916660  103.99500275    4.90999985    2.64000010
   14.63111115   99.66840363    4.90999985    2.64000010
   14.63416672  110.82199860    4.90999985    2.64000010
   14.63972187  110.82199860    4.90999985    2.64000010
   14.64388847  111.55500031    4.90999985    2.64000010
   14.64722252  107.07599640    4.90999985    2.64000010
   14.65027714  115.41799927    4.90999985    2.61999989
   14.65361118  111.38600159    4.90999985    2.64000010
   14.65694427  103.83699799    4.90999985    2.64000010
   14.65999985  104.94599915    4.90999985    2.61999989
   14.66249943  111.38700104    4.90999985    2.61999989
   14.66388893  107.37799835    4.90999985    2.61999989
   14.66694450  103.38700104    4.90999985    2.59999990
   14.67027855  129.37399292    4.90999985    2.50000000
   14.67361164  118.56400299    4.90999985    2.32999992
   14.67666721  110.36299896    4.90999985    2.25000000
   14.68277836  110.36299896    4.90999985    2.57999992
   14.68694496  113.13099670    4.90999985    2.46000004
   14.69000053  195.77499390    4.90999985    2.25000000
   14.69333363  115.06199646    4.90999985    2.23000002
   14.69583321  109.87500000    4.90999985    2.42000008
   14.69694424  115.40399933    4.90999985    2.44000006
   14.70027733  109.31600189    4.90999985    2.64000010
   14.70361137  107.69000244    4.90999985    2.64000010
   14.70666695  107.58599854    4.90999985    2.55999994
   14.71000004  134.17999268    4.90999985    2.50000000
   14.71333313  111.73999786    4.90999985    2.48000002
   14.71638870  101.90899658    4.90999985    2.61999989
   14.71972179  108.71399689    4.90999985    2.64000010
   14.72555542  108.71399689    4.90999985    2.59999990
   14.72972202  120.67500305    4.90999985    2.53999996
   14.73305511  105.75499725    4.90999985    2.59999990
   14.73638916  110.07399750    4.90999985    2.59999990
   14.73944473  117.12699890    4.90999985    2.59999990
   14.74277782  110.19699860    4.90999985    2.64000010
   14.74583340  103.33200073    4.90999985    2.61999989
   14.74916649  102.73500061    4.90999985    2.64000010
   14.75249958  112.69599915    4.90999985    2.64000010
   14.75583363   93.65959930    4.90999985    2.64000010
   14.75888920   91.64299774    4.90999985    2.61999989
   14.76222229  108.14399719    4.90999985    2.61999989
   14.76277733  119.17700195    4.90999985    2.61999989
   14.76833344  119.17700195    4.90999985    2.64000010
   14.77250004  105.59600067    4.90999985    2.64000010
   14.77583313  106.58200073    4.90999985    2.64000010
   14.77916622  115.07499695    4.90999985    2.61999989
   14.78222179  111.74900055    4.90999985    2.61999989
   14.78555584  110.87500000    4.90999985    2.64000010
   14.78888893  104.54499817    4.90999985    2.64000010
   14.79194450   95.87500000    4.90999985    2.64000010
   14.79527855  106.26100159    4.90999985    2.64000010
   14.79611111   96.78900146    4.90999985    2.61999989
   14.79888916  105.90000153    4.90999985    2.61999989
   14.80194473  100.84200287    4.90999985    2.64000010
   14.80527782  113.65699768    4.90999985    2.64000010
   14.81111145  113.65699768    4.90999985    2.66000009
   14.81527805   98.05819702    4.90999985    2.64000010
   14.81861115  111.40399933    4.90999985    2.64000010
   14.82194424   97.13140106    4.90999985    2.64000010
   14.82499981   98.81690216    4.90999985    2.64000010
   14.82833290  103.80200195    4.90999985    2.64000010
   14.82944393  105.88300323    4.90999985    2.64000010
   14.83194447  104.12400055    4.90999985    2.64000010
   14.83500004   88.31569672    4.90999985    2.64000010
   14.83833313  105.63999939    4.90999985    2.64000010
   14.84166622  110.57800293    4.90999985    2.61999989
   14.84472179  111.79100037    4.90999985    2.64000010
   14.84805489  116.49500275    4.90999985    2.64000010
   14.85416698  116.49500275    4.90999985    2.61999989
   14.85833359  111.62200165    4.90999985    2.61999989
   14.86138916   94.50810242    4.90999985    2.61999989
   14.86277771  109.39399719    4.90999985    2.64000010
   14.86500072  117.95300293    4.90999985    2.61999989
   14.86833382   97.41380310    4.90999985    2.61999989
   14.87138939  103.72000122    4.90999985    2.64000010
   14.87472248  115.44899750    4.90999985    2.61999989
   14.87805557   99.71869659    4.90999985    2.64000010
   14.88138866  110.28800201    4.90999985    2.61999989
   14.88444424  115.73699951    4.90999985    2.64000010
   14.88777733  119.77600098    4.90999985    2.64000010
   14.89111137  100.40299988    4.90999985    2.61999989
   14.89694405  100.40299988    4.90999985    2.64000010
   14.90138817  108.61299896    4.90999985    2.64000010
   14.90444374  108.80799866    4.90999985    2.64000010
   14.90777779  108.90899658    4.90999985    2.64000010
   14.91111088  114.34100342    4.90999985    2.64000010
   14.91416645  104.09500122    4.90999985    2.64000010
   14.91750050  102.21399689    4.90999985    2.64000010
   14.92055607  109.52400208    4.90999985    2.64000010
   14.92388916  107.20800018    4.90999985    2.64000010
   14.92722225  110.34700012    4.90999985    2.64000010
   14.92944431  114.82800293    4.90999985    2.64000010
   14.93083382  106.93499756    4.90999985    2.64000010
   14.93416691   96.95349884    4.90999985    2.64000010
   14.93972206   96.95349884    4.90999985    2.64000010
   14.94388866  107.50599670    4.90999985    2.64000010
   14.94722271  109.79299927    4.90999985    2.64000010
   14.95027733  109.98600006    4.90999985    2.64000010
   14.95361137  109.17099762    4.90999985    2.64000010
   14.95694447  112.31199646    4.90999985    2.64000010
   14.96027756  110.10600281    4.90999985    2.61999989
   14.96277714  116.01000214    4.90999985    2.64000010
   14.96388912  114.07599640    4.90999985    2.64000010
   14.96722221  116.31700134    4.90999985    2.64000010
   14.97055531  110.28299713    4.90999985    2.64000010
   14.97361088  104.13999939    4.90999985    2.64000010
   14.97694397  103.05100250    4.90999985    2.64000010
   14.98277760  103.05100250    4.90999985    2.64000010
   14.98694515  105.86199951    4.90999985    2.64000010
   14.99000072  108.38200378    4.90999985    2.64000010
   14.99333382  108.24600220    4.90999985    2.64000010
   14.99611092  103.49299622    4.90999985    2.64000010
   14.99694443  109.77700043    4.90999985    2.64000010
   15.00027752  107.23200226    4.90999985    2.64000010
   15.00333309  107.60900116    4.90999985    2.64000010
   15.00666714  100.35900116    4.90999985    2.64000010
   15.01000023  106.12200165    4.90999985    2.64000010
   15.01305580  107.62500000    4.90999985    2.64000010
   15.01638889  109.49099731    4.90999985    2.64000010
   15.01972198  109.70999908    4.90999985    2.64000010
   15.02555561  109.70999908    4.90999985    2.64000010
   15.02972221  105.28600311    4.90999985    2.64000010
   15.03277779  100.75199890    4.90999985    2.64000010
   15.03611183  110.55400085    4.90999985    2.64000010
   15.03944492  101.68599701    4.90999985    2.64000010
   15.04250050  114.13099670    4.90999985    2.64000010
   15.04583359  104.38300323    4.90999985    2.64000010
   15.04916668  106.44200134    4.90999985    2.66000009
   15.05222225  110.16000366    4.90999985    2.64000010
   15.05555534  107.07800293    4.90999985    2.64000010
   15.05916691   98.97160339    4.90999985    2.64000010
   15.06222248  110.21199799    4.90999985    2.66000009
   15.06277752  112.30999756    4.90999985    2.64000010
   15.06861115  112.30999756    4.90999985    2.64000010
   15.07277775  125.46399689    4.90999985    2.64000010
   15.07583332  105.41699982    4.90999985    2.64000010
   15.07916641  135.54899597    4.90999985    2.64000010
   15.08222198  132.20700073    4.90999985    2.64000010
   15.08555508  144.43899536    4.90999985    2.66000009
   15.08888817  130.91200256    4.90999985    2.64000010
   15.09194374  131.47999573    4.90999985    2.64000010
   15.09527779  151.83599854    4.90999985    2.64000010
   15.09611034  146.51699829    4.90999985    2.64000010
   15.09888840  150.02000427    4.90999985    2.64000010
   15.10222244  139.78900146    4.90999985    2.64000010
   15.10527802  148.22500610    4.90999985    2.64000010
   15.11138916  148.22500610    4.90999985    2.64000010
   15.11555576  152.30700684    4.90999985    2.66000009
   15.11861134  169.66600037    4.90999985    2.64000010
   15.12194443  165.52000427    4.90999985    2.64000010
   15.12527752  173.09899902    4.90999985    2.64000010
   15.12833309  167.17300415    4.90999985    2.64000010
   15.12944412  165.53900146    4.90999985    2.64000010
   15.13194466  163.53300476    4.90999985    2.64000010
   15.13527775  181.31599426    4.90999985    2.64000010
   15.13833332  196.78900146    4.90999985    2.64000010
   15.14166641  179.30900574    4.90999985    2.64000010
   15.14499950  178.83999634    4.90999985    2.64000010
   15.14805508  169.46400452    4.90999985    2.64000010
   15.15416622  169.46400452    4.90999985    2.66000009
   15.15833282  193.38400269    4.90999985    2.64000010
   15.16166592  178.07000732    4.90999985    2.64000010
   15.16305542  165.80200195    4.90999985    2.64000010
   15.16499996  195.77900696    4.90999985    2.64000010
   15.16833401  138.34700012    4.90999985    2.64000010
   15.17138958  159.85699463    4.90999985    2.64000010
   15.17472267  146.24600220    4.90999985    2.64000010
   15.17805576  156.43800354    4.90999985    2.64000010
   15.18111134  163.00700378    4.90999985    2.66000009
   15.18444443  153.82200623    4.90999985    2.66000009
   15.18777752  174.70899963    4.90999985    2.64000010
   15.19083309  151.09100342    4.90999985    2.64000010
   15.19694424  151.09100342    4.90999985    2.64000010
   15.20111084  167.68200684    4.90999985    2.64000010
   15.20444393  158.50700378    4.90999985    2.64000010
   15.20749950  153.80900574    4.90999985    2.64000010
   15.21083355  133.71099854    4.90999985    2.64000010
   15.21416664  148.69000244    4.90999985    2.64000010
   15.21722221  141.75100708    4.90999985    2.64000010
   15.22055531  143.60000610    4.90999985    2.64000010
   15.22388840  128.17900085    4.90999985    2.66000009
   15.22694397  128.48300171    4.90999985    2.66000009
   15.22972202  121.51200104    4.90999985    2.64000010
   15.23055553  133.64999390    4.90999985    2.64000010
   15.23388958  125.79100037    4.90999985    2.64000010
   15.24000072  125.79100037    4.90999985    2.64000010
   15.24388885  120.12599945    4.90999985    2.64000010
   15.24722290  105.97000122    4.90999985    2.66000009
   15.25055599  112.68399811    4.90999985    2.66000009
   15.25361156  113.69000244    4.90999985    2.66000009
   15.25694466  104.95600128    4.90999985    2.64000010
   15.26027775  111.92400360    4.90999985    2.64000010
   15.26305580   98.40039825    4.90999985    2.64000010
   15.26361084  105.31300354    4.90999985    2.64000010
   15.26694393  115.89700317    4.90999985    2.64000010
   15.26999950  105.94899750    4.90999985    2.66000009
   15.27333355  114.68000031    4.90999985    2.64000010
   15.27666664  111.97000122    4.90999985    2.64000010
   15.28277779  111.97000122    4.90999985    2.66000009
   15.28694534  115.09700012    4.90999985    2.66000009
   15.29000092  110.68299866    4.90999985    2.66000009
   15.29333401  110.20200348    4.90999985    2.66000009
   15.29638958  108.96099854    4.90999985    2.64000010
   15.29694462  106.16400146    4.90999985    2.64000010
   15.30027771  103.55200195    4.90999985    2.64000010
   15.30333328  101.83300018    4.90999985    2.64000010
   15.30666733  107.44899750    4.90999985    2.64000010
   15.31000042   92.10849762    4.90999985    2.66000009
   15.31305599  104.58499908    4.90999985    2.66000009
   15.31638908  102.34600067    4.90999985    2.64000010
   15.31972218  104.32099915    4.90999985    2.66000009
   15.32555580  104.32099915    4.90999985    2.66000009
   15.32972240  112.91200256    4.90999985    2.64000010
   15.33305550  100.21299744    4.90999985    2.66000009
   15.33611107   95.64929962    4.90999985    2.66000009
   15.33944416   99.73210144    4.90999985    2.66000009
   15.34249973  104.21299744    4.90999985    2.66000009
   15.34583282  106.82900238    4.90999985    2.64000010
   15.34916592  102.21399689    4.90999985    2.66000009
   15.35222244  103.51599884    4.90999985    2.66000009
   15.35555553  100.82599640    4.90999985    2.66000009
   15.35888958  102.42500305    4.90999985    2.64000010
   15.36194515  108.81800079    4.90999985    2.66000009
   15.37944412  110.13999939    4.90999985    2.66000009
   15.38361073  110.13999939    4.90999985    2.66000009
   15.38749981   89.21790314    4.90999985    2.64000010
   15.39083290  102.55799866    4.90999985    2.66000009
   15.39416695  112.65299988    4.90999985    2.66000009
   15.39722252  104.81900024    4.90999985    2.64000010
   15.40055561  109.77100372    4.90999985    2.64000010
   15.40388870   91.72820282    4.90999985    2.64000010
   15.40694427  115.98600006    4.90999985    2.64000010
   15.41027737  105.77200317    4.90999985    2.67000008
   15.41249943   96.84459686    4.90999985    2.66000009
   15.41388893  101.61000061    4.90999985    2.66000009
   15.41694450  104.17299652    4.90999985    2.66000009
   15.42027855  104.84100342    4.90999985    2.67000008
   15.42638874  104.84100342    4.90999985    2.66000009
   15.43055630  101.25199890    4.90999985    2.66000009
   15.43361092  109.35700226    4.90999985    2.66000009
   15.43694496  100.40499878    4.90999985    2.64000010
   15.44000053  104.73500061    4.90999985    2.66000009
   15.44333363  109.53199768    4.90999985    2.66000009
   15.44583321  102.10900116    4.90999985    2.66000009
   15.44694424  103.48899841    4.90999985    2.67000008
   15.44999981  107.75900269    4.90999985    2.66000009
   15.45333290  112.34500122    4.90999985    2.64000010
   15.45666695   92.60359955    4.90999985    2.64000010
   15.45972157  101.10500336    4.90999985    2.66000009
   15.46305561  105.41100311    4.90999985    2.66000009
   15.46916580  105.41100311    4.90999985    2.66000009
   15.47333336  105.91300201    4.90999985    2.64000010
   15.47666645  111.23999786    4.90999985    2.64000010
   15.47916603  111.21900177    4.90999985    2.64000010
   15.48027706  107.75800323    4.90999985    2.66000009
   15.48361111  106.72799683    4.90999985    2.66000009
   15.48666668  118.64600372    4.90999985    2.66000009
   15.49000072  110.19100189    4.90999985    2.66000009
   15.49305534   99.78559875    4.90999985    2.66000009
   15.49638939  112.18199921    4.90999985    2.67000008
   15.49972248  104.53299713    4.90999985    2.67000008
   15.50277805  117.09799957    4.90999985    2.67000008
   15.50611115  108.84300232    4.90999985    2.66000009
   15.51194477  108.84300232    4.90999985    2.66000009
   15.51611137  101.67800140    4.90999985    2.66000009
   15.51944447  106.30500031    4.90999985    2.66000009
   15.52250004  104.92400360    4.90999985    2.66000009
   15.52583313  111.07399750    4.90999985    2.64000010
   15.52916622  112.83000183    4.90999985    2.66000009
   15.53222179  105.36000061    4.90999985    2.66000009
   15.53555584  104.60800171    4.90999985    2.66000009
   15.53916740  100.37000275    4.90999985    2.66000009
   15.54222298  107.23600006    4.90999985    2.64000010
   15.54555607  108.11900330    4.90999985    2.67000008
   15.54722309  114.02999878    4.90999985    2.66000009
   15.54916668  111.80500031    4.90999985    2.67000008
   15.55500031  111.80500031    4.90999985    2.67000008
   15.55888939   94.94180298    4.90999985    2.66000009
   15.56222248  104.05300140    4.90999985    2.66000009
   15.56555557   99.01560211    4.90999985    2.66000009
   15.56861115   97.24569702    4.90999985    2.66000009
   15.57194424   97.90950012    4.90999985    2.67000008
   15.57527733  106.35600281    4.90999985    2.66000009
   15.57833290  101.66600037    4.90999985    2.67000008
   15.58055592  110.76300049    4.90999985    2.64000010
   15.58194447  104.76699829    4.90999985    2.67000008
   15.58527756  102.01300049    4.90999985    2.66000009
   15.58861065   92.06289673    4.90999985    2.67000008
   15.59166622  100.03600311    4.90999985    2.64000010
   15.59777737  100.03600311    4.90999985    2.66000009
   15.60194492   89.30609894    4.90999985    2.66000009
   15.60500050   96.42800140    4.90999985    2.66000009
   15.60833359   98.50250244    4.90999985    2.66000009
   15.61166668  105.98600006    4.90999985    2.64000010
   15.61388969   95.23090363    4.90999985    2.67000008
   15.61527824  100.41999817    4.90999985    2.67000008
   15.61833382   98.67320251    4.90999985    2.66000009
   15.62166691   95.63580322    4.90999985    2.66000009
   15.62500000  105.73500061    4.90999985    2.66000009
   15.62805557  100.32900238    4.90999985    2.66000009
   15.63138866  106.86499786    4.90999985    2.64000010
   15.63444424   93.00900269    4.90999985    2.66000009
   15.64055538   93.00900269    4.90999985    2.66000009
   15.64472198  102.45899963    4.90999985    2.67000008
   15.64722252  102.55899811    4.90999985    2.67000008
   15.64833355  103.25900269    4.90999985    2.66000009
   15.65138817   86.22750092    4.90999985    2.66000009
   15.65472221   97.31890106    4.90999985    2.67000008
   15.65805531   95.41000366    4.90999985    2.67000008
   15.66111088  114.66100311    4.90999985    2.67000008
   15.66444397  105.89199829    4.90999985    2.67000008
   15.66750050  111.82700348    4.90999985    2.67000008
   15.67083359  100.95999908    4.90999985    2.64000010
   15.67416668   90.34470367    4.90999985    2.66000009
   15.67722225  107.94100189    4.90999985    2.67000008
   15.68333340  107.94100189    4.90999985    2.67000008
   15.68750000  116.71199799    4.90999985    2.69000006
   15.69083309  110.53199768    4.90999985    2.67000008
   15.69388866  100.81800079    4.90999985    2.67000008
   15.69722271  101.40100098    4.90999985    2.67000008
   15.70055580   92.99649811    4.90999985    2.67000008
   15.70361137  104.54900360    4.90999985    2.67000008
   15.70694447  108.45400238    4.90999985    2.67000008
   15.71000004   99.21250153    4.90999985    2.67000008
   15.71333313  101.00299835    4.90999985    2.67000008
   15.71416664   98.50090027    4.90999985    2.67000008
   15.71694374   93.57710266    4.90999985    2.67000008
   15.72027779   97.89209747    4.90999985    2.67000008
   15.72611046   97.89209747    4.90999985    2.67000008
   15.73027706   90.40019989    4.90999985    2.67000008
   15.73361111  109.67900085    4.90999985    2.67000008
   15.73694515   98.65509796    4.90999985    2.67000008
   15.74000072   99.75679779    4.90999985    2.67000008
   15.74333382   96.66079712    4.90999985    2.67000008
   15.74666691   92.43520355    4.90999985    2.67000008
   15.74750042   90.60810089    4.90999985    2.67000008
   15.75000000   97.69889832    4.90999985    2.67000008
   15.75333309  106.40799713    4.90999985    2.67000008
   15.75638866   91.06089783    4.90999985    2.67000008
   15.75972176   95.07070160    4.90999985    2.67000008
   15.76305580   81.71309662    4.90999985    2.69000006
   15.76916599   81.71309662    4.90999985    2.67000008
   15.77333355   99.37879944    4.90999985    2.67000008
   15.77638817  106.14299774    4.90999985    2.67000008
   15.77972221  106.37799835    4.90999985    2.67000008
   15.78111076   83.34729767    4.90999985    2.67000008
   15.78333378  107.46499634    4.90999985    2.67000008
   15.78638935  109.01499939    4.90999985    2.67000008
   15.78972244   92.77310181    4.90999985    2.67000008
   15.79305553   95.26889801    4.90999985    2.67000008
   15.79611111   99.37870026    4.90999985    2.69000006
   15.79944515  100.54900360    4.90999985    2.67000008
   15.80277824  104.94899750    4.90999985    2.67000008
   15.80611134  102.01300049    4.90999985    2.67000008
   15.81194496  102.01300049    4.90999985    2.67000008
   15.81611156   92.99810028    4.90999985    2.66000009
   15.81944466   82.90290070    4.90999985    2.67000008
   15.82250023   94.70240021    4.90999985    2.67000008
   15.82583332  102.49199677    4.90999985    2.67000008
   15.82888889   89.56829834    4.90999985    2.67000008
   15.83222198   96.59120178    4.90999985    2.67000008
   15.83555508   91.36170197    4.90999985    2.67000008
   15.83861065   91.80059814    4.90999985    2.67000008
   15.84194374   88.71320343    4.90999985    2.71000004
   15.84499931   91.64859772    4.90999985    2.69000006
   15.84777737   86.32160187    4.90999985    2.67000008
   15.84888840   97.55719757    4.90999985    2.67000008
   15.85472298   97.55719757    4.90999985    2.67000008
   15.85888958   94.43360138    4.90999985    2.69000006
   15.86222267   90.60330200    4.90999985    2.67000008
   15.86527824  100.06400299    4.90999985    2.67000008
   15.86861134  101.08799744    4.90999985    2.69000006
   15.87194443  110.66500092    4.90999985    2.67000008
   15.87500000   94.08879852    4.90999985    2.67000008
   15.87833309   97.38099670    4.90999985    2.67000008
   15.88111115   98.05750275    4.90999985    2.67000008
   15.88194466   94.79840088    4.90999985    2.67000008
   15.88527775   87.21520233    4.90999985    2.67000008
   15.88833332   96.58820343    4.90999985    2.67000008
   15.89166641  100.96700287    4.90999985    2.67000008
   15.89777756  100.96700287    4.90999985    2.67000008
   15.90166664   99.19689941    4.90999985    2.67000008
   15.90499973  106.33000183    4.90999985    2.69000006
   15.90833282  109.32499695    4.90999985    2.67000008
   15.91138840  107.61000061    4.90999985    2.67000008
   15.91444397  100.64099884    4.90999985    2.67000008
   15.91499996  101.06099701    4.90999985    2.67000008
   15.91833401   92.02069855    4.90999985    2.67000008
   15.92138958   93.25289917    4.90999985    2.69000006
   15.92472267   81.99909973    4.90999985    2.69000006
   15.92777824   86.36730194    4.90999985    2.67000008
   15.93111134   95.87310028    4.90999985    2.67000008
   15.93444443  101.18299866    4.90999985    2.67000008
   15.94055557  101.18299866    4.90999985    2.67000008
   15.94472218   91.18949890    4.90999985    2.67000008
   15.94777775   89.80030060    4.90999985    2.67000008
   15.94833374   86.97949982    4.90999985    2.67000008
   15.95166683   87.55220032    4.90999985    2.67000008
   15.95472240   84.92009735    4.90999985    2.69000006
   15.95805550   90.73519897    4.90999985    2.67000008
   15.96111107  102.31300354    4.90999985    2.67000008
   15.96444416  102.06400299    4.90999985    2.67000008
   15.96777725  101.64800262    4.90999985    2.69000006
   15.97083282   93.51499939    4.90999985    2.67000008
   15.97416592   90.40450287    4.90999985    2.69000006
   15.97749996  101.28700256    4.90999985    2.67000008
   15.98333359  101.28700256    4.90999985    2.69000006
   15.98750019  114.06400299    4.90999985    2.67000008
   15.99055576  109.31199646    4.90999985    2.67000008
   15.99388885  103.15799713    4.90999985    2.67000008
   15.99722290   96.90440369    4.90999985    2.67000008
   16.00027847  104.34500122    4.90999985    2.67000008
   16.00361061  102.81400299    4.90999985    2.67000008
   16.00694466   97.23459625    4.90999985    2.67000008
   16.01000023   91.02429962    4.90999985    2.67000008
   16.01333427  110.72699738    4.90999985    2.67000008
   16.01444435  107.77700043    4.90999985    2.67000008
   16.01694489  108.47399902    4.90999985    2.67000008
   16.02027702  110.25000000    4.90999985    2.67000008
   16.02611160  110.25000000    4.90999985    2.67000008
   16.03027725  130.46400452    4.90999985    2.67000008
   16.03361130  119.48999786    4.90999985    2.69000006
   16.03666687  108.26499939    4.90999985    2.66000009
   16.03999901  103.07399750    4.90999985    2.67000008
   16.04333305  100.61799622    4.90999985    2.67000008
   16.04638863   89.89640045    4.90999985    2.67000008
   16.04777718  106.12300110    4.90999985    2.67000008
   16.04999924  123.19100189    4.90999985    2.67000008
   16.05333328  107.61000061    4.90999985    2.67000008
   16.05638885  103.44799805    4.90999985    2.67000008
   16.05972099  113.29699707    4.90999985    2.67000008
   16.06277657   98.39849854    4.90999985    2.67000008
   16.06916809   98.39849854    4.90999985    2.67000008
   16.07305717  108.02899933    4.90999985    2.67000008
   16.07638931  105.73600006    4.90999985    2.67000008
   16.07972336  109.37799835    4.90999985    2.66000009
   16.08139038  105.31700134    4.90999985    2.67000008
   16.08333397  104.30100250    4.90999985    2.66000009
   16.08638954  111.62100220    4.90999985    2.67000008
   16.08972359  122.39199829    4.90999985    2.64000010
   16.09305573  108.67400360    4.90999985    2.67000008
   16.09611130   97.86009979    4.90999985    2.67000008
   16.09944534  105.79299927    4.90999985    2.67000008
   16.10277748  107.80300140    4.90999985    2.67000008
   16.10583305  107.05300140    4.90999985    2.67000008
   16.11194420  107.05300140    4.90999985    2.67000008
   16.11611176  110.48799896    4.90999985    2.67000008
   16.11916733   99.72740173    4.90999985    2.67000008
   16.12249947  102.53600311    4.90999985    2.67000008
   16.12555504  105.86100006    4.90999985    2.67000008
   16.12888908   98.29290009    4.90999985    2.67000008
   16.13222313   98.04560089    4.90999985    2.67000008
   16.13527679   98.99849701    4.90999985    2.69000006
   16.13861084  111.91000366    4.90999985    2.67000008
   16.14194489  103.71800232    4.90999985    2.67000008
   16.14500046   87.86109924    4.90999985    2.67000008
   16.14805603  105.29000092    4.90999985    2.67000008
   16.14861107   92.44860077    4.90999985    2.67000008
   16.15472221   92.44860077    4.90999985    2.67000008
   16.15888786  101.12500000    4.90999985    2.67000008
   16.16194344   96.14649963    4.90999985    2.67000008
   16.16527748  109.12000275    4.90999985    2.67000008
   16.16860962   90.90769958    4.90999985    2.67000008
   16.17166519  104.93699646    4.90999985    2.67000008
   16.17499924   87.82299805    4.90999985    2.67000008
   16.17833328   92.47840118    4.90999985    2.67000008
   16.18138885   94.09750366    4.90999985    2.67000008
   16.18194389  106.37699890    4.90999985    2.67000008
   16.18499947   96.82969666    4.90999985    2.69000006
   16.18833160   91.71710205    4.90999985    2.67000008
   16.19166565   96.62979889    4.90999985    2.69000006
   16.19749832   96.62979889    4.90999985    2.69000006
   16.20166779  103.23100281    4.90999985    2.67000008
   16.20499992   95.35440063    4.90999985    2.67000008
   16.20805550  102.53399658    4.90999985    2.67000008
   16.21138954  106.66300201    4.90999985    2.67000008
   16.21472359  108.92800140    4.90999985    2.69000006
   16.21527863  107.09700012    4.90999985    2.67000008
   16.21833420   96.63970184    4.90999985    2.69000006
   16.22166634   95.80930328    4.90999985    2.75000000
   16.22472191   -1.00000000    4.90999985    2.17000008
   16.22805595   96.31919861    4.90999985    1.60000002
   16.23139000  102.80799866    4.90999985    2.73000002
   16.23444557  101.08499908    4.90999985    2.71000004
   16.24027824  101.08499908    4.90999985    2.67000008
   16.24444389  102.93699646    4.90999985    2.67000008
   16.24777794   99.51390076    4.90999985    2.67000008
   16.24861145   96.12059784    4.90999985    2.69000006
   16.25138855   98.56359863    4.90999985    2.67000008
   16.25472260   96.09220123    4.90999985    2.67000008
   16.25777817   92.27529907    4.90999985    2.67000008
   16.26111031   86.92690277    4.90999985    2.67000008
   16.26444435   93.07270050    4.90999985    2.69000006
   16.26749992  101.22499847    4.90999985    2.67000008
   16.27083397  104.75700378    4.90999985    2.67000008
   16.27416611  103.08799744    4.90999985    2.67000008
   16.27722168  114.25700378    4.90999985    2.67000008
   16.28333282  114.25700378    4.90999985    2.09999990
   16.28750038   -1.00000000    4.90999985    0.92000002
   16.29055595   -1.00000000    4.90999985    0.70999998
   16.29388809  170.01199341    4.90999985    1.41999996
   16.29694366  158.83200073    4.90999985    1.55999994
   16.30027771  126.10299683    4.90999985    2.59999990
   16.30360985  112.66100311    4.90999985    2.32999992
   16.30666542  103.44999695    4.90999985    2.36999989
   16.30999947  102.47799683    4.90999985    2.67000008
   16.31333351  105.19599915    4.90999985    2.64000010
   16.31527710  110.29299927    4.90999985    2.46000004
   16.31666756  129.06799316    4.90999985    2.53999996
   16.32000160  237.20899963    4.90999985    2.55999994
   16.33027840   -1.00000000    4.90999985    0.25999999
   16.33333397  164.93200684    4.90999985    0.55000001
   16.33666801  101.91400146    4.90999985    2.75000000
   16.33972359  102.08999634    4.90999985    2.69000006
   16.34305573  215.99600220    4.90999985    2.50000000
   16.34638977   -1.00000000    4.90999985    1.61000001
   16.35000038  210.60200500    4.90999985    1.44000006
   16.35305595   -1.00000000    4.90999985    1.94000006
   16.35639000   -1.00000000    4.90999985    1.83000004
   16.35972214   -1.00000000    4.90999985    1.23000002
   16.36277771  120.27799988    4.90999985    1.16999996
   16.36888885  120.27799988    4.90999985    2.67000008
   16.37305641  114.91899872    4.90999985    2.66000009
   16.37638855  128.67799377    4.90999985    2.64000010
   16.37944412  129.66299438    4.90999985    2.64000010
   16.39944458   -1.00000000    4.90999985    0.19000000
   16.40277672  209.44200134    4.90999985    0.81999999
   16.40583229   95.47689819    4.90999985    2.13000011
   16.41194344   95.47689819    4.90999985    2.55999994
   16.41611099   -1.00000000    4.90999985    1.09000003
   16.41944313   -1.00000000    4.90999985    1.19000006
   16.42249870   -1.00000000    4.90999985    0.36000001
   16.42583275   -1.00000000    4.90999985    0.86000001
   16.42916679  145.76199341    4.90999985    0.94000000
   16.43277740  271.89801025    4.90999985    1.71000004
   16.43610954  103.08499908    4.90999985    2.71000004
   16.43916512  101.19899750    4.90999985    2.73000002
   16.44249916   96.30809784    4.90999985    2.69000006
   16.44555473  103.54199982    4.90999985    2.66000009
   16.44888878  118.73400116    4.90999985    2.61999989
   16.45499992  118.73400116    4.90999985    1.51999998
   16.45888901   -1.00000000   -1.00000000   -1.00000000
   16.46222305  398.50799561    4.90999985    1.98000002
   16.46444511  139.79699707    4.90999985    2.09999990
   16.46444511  271.89801025    4.90999985    1.71000004
   16.46444511  103.08499908    4.90999985    2.71000004
   16.46472359  101.19899750    4.90999985    2.73000002
   16.46472359   96.30809784    4.90999985    2.69000006
   16.46472359  103.54199982    4.90999985    2.66000009
   16.46500015  118.73400116    4.90999985    2.61999989
   16.46500015   -1.00000000   -1.00000000   -1.00000000
   16.46500015  398.50799561    4.90999985    1.98000002
   16.46527863  145.76199341    4.90999985    0.94000000
   16.46694565  104.88999939    4.90999985    2.40000010
   16.47000122  151.35499573    4.90999985    2.28999996
   16.47333336  104.86699677    4.90999985    2.48000002
   16.47666740   91.06600189    4.90999985    2.69000006
   16.47972298   94.02369690    4.90999985    2.67000008
   16.48527718   94.02369690    4.90999985    2.59999990
   16.48916626  104.10800171    4.90999985    2.59999990
   16.49250031   95.83509827    4.90999985    2.66000009
   16.49583435  101.11299896    4.90999985    2.66000009
   16.49833298   95.03910065    4.90999985    2.66000009
   16.49944496   97.87210083    4.90999985    2.67000008
   16.50277710  100.88800049    4.90999985    2.67000008
   16.50583267   97.45809937    4.90999985    2.66000009
   16.50916672   95.04319763    4.90999985    2.67000008
   16.51250076   99.49510193    4.90999985    2.67000008
   16.51555634   91.65850067    4.90999985    2.67000008
   16.51888847   87.96369934    4.90999985    2.67000008
   16.52222252   94.27639771    4.90999985    2.67000008
   16.52805519   94.27639771    4.90999985    2.67000008
   16.53222275   98.75749969    4.90999985    2.67000008
   16.53527641  101.42199707    4.90999985    2.67000008
   16.53861046   88.70760345    4.90999985    2.67000008
   16.54194450   93.54250336    4.90999985    2.67000008
   16.54500008   91.09149933    4.90999985    2.67000008
   16.54833221   86.11640167    4.90999985    2.67000008
   16.55138779   97.54709625    4.90999985    2.67000008
   16.55472183   95.81390381    4.90999985    2.67000008
   16.55805397   96.94300079    4.90999985    2.67000008
   16.56110954   96.39260101    4.90999985    2.67000008
   16.56444359   95.45379639    4.90999985    2.67000008
   16.56499863   93.21420288    4.90999985    2.67000008
   16.57083511   93.21420288    4.90999985    2.67000008
   16.57500076   92.92040253    4.90999985    2.67000008
   16.57833481   93.15889740    4.90999985    2.67000008
   16.58139038  105.01399994    4.90999985    2.67000008
   16.58472252   99.75109863    4.90999985    2.67000008
   16.58777809   91.23030090    4.90999985    2.67000008
   16.59111214  103.41799927    4.90999985    2.67000008
   16.59444427   92.86090088    4.90999985    2.67000008
   16.59749985   96.67630005    4.90999985    2.67000008
   16.59833336  104.71199799    4.90999985    2.67000008
   16.60138893  100.02200317    4.90999985    2.67000008
   16.60444450  100.14199829    4.90999985    2.67000008
   16.60777855   93.95909882    4.90999985    2.67000008
   16.61361122   93.95909882    4.90999985    2.67000008
   16.61777878   97.29660034    4.90999985    2.67000008
   16.62111092   86.29740143    4.90999985    2.67000008
   16.62416649   94.97640228    4.90999985    2.67000008
   16.62750053   98.02989960    4.90999985    2.67000008
   16.63083267   96.41439819    4.90999985    2.67000008
   16.63166618   94.57219696    4.90999985    2.67000008
   16.63444519   96.35220337    4.90999985    2.67000008
   16.63750076   96.56020355    4.90999985    2.67000008
   16.64083290   88.73930359    4.90999985    2.67000008
   16.64416695   99.53099823    4.90999985    2.67000008
   16.64722252   94.33390045    4.90999985    2.67000008
   16.65055466   89.66280365    4.90999985    2.66000009
   16.65666580   89.66280365    4.90999985    2.67000008
   16.66055489   94.30370331    4.90999985    2.67000008
   16.66388893   92.04090118    4.90999985    2.67000008
   16.66499901   95.21099854    4.90999985    2.67000008
   16.66777802   93.01580048    4.90999985    2.67000008
   16.67083359   95.39939880    4.90999985    2.67000008
   16.67416573   98.59909821    4.90999985    2.67000008
   16.67722130   91.39689636    4.90999985    2.67000008
   16.68055534   97.36550140    4.90999985    2.67000008
   16.68388748  101.69599915    4.90999985    2.67000008
   16.68694305  108.47000122    4.90999985    2.67000008
   16.69027710  108.18900299    4.90999985    2.67000008
   16.69361115  106.34200287    4.90999985    2.67000008
   16.69944382  106.34200287    4.90999985    2.67000008
   16.70361137  100.85199738    4.90999985    2.67000008
   16.70666695   88.61620331    4.90999985    2.67000008
   16.71000099   89.45379639    4.90999985    2.67000008
   16.71333504   95.08760071    4.90999985    2.67000008
   16.71638870   91.35279846    4.90999985    2.67000008
   16.71972275   87.60630035    4.90999985    2.67000008
   16.72277832   95.37539673    4.90999985    2.67000008
   16.72611237   91.87039948    4.90999985    2.67000008
   16.72944450   99.08699799    4.90999985    2.67000008
   16.73166656  107.01200104    4.90999985    2.67000008
   16.73305511   98.86289978    4.90999985    2.67000008
   16.73611069  108.37599945    4.90999985    2.67000008
   16.74222183  108.37599945    4.90999985    2.67000008
   16.74638939  100.28800201    4.90999985    2.67000008
   16.74972153   97.03730011    4.90999985    2.67000008
   16.75277710   99.44129944    4.90999985    2.66000009
   16.75611115   97.78060150    4.90999985    2.66000009
   16.75916672  101.80599976    4.90999985    2.67000008
   16.76250076  110.32299805    4.90999985    2.67000008
   16.76499939  107.65399933    4.90999985    2.67000008
   16.76638794  100.34700012    4.90999985    2.67000008
   16.76944351   94.03839874    4.90999985    2.67000008
   16.77277756  104.53600311    4.90999985    2.66000009
   16.77583313  104.50499725    4.90999985    2.67000008
   16.77916718   96.85389709    4.90999985    2.67000008
   16.78499985   96.85389709    4.90999985    2.67000008
   16.78916550  103.77200317    4.90999985    2.67000008
   16.79249954  104.22899628    4.90999985    2.66000009
   16.79555511   99.18199921    4.90999985    2.66000009
   16.79833221   99.64260101    4.90999985    2.67000008
   16.79944420   97.41609955    4.90999985    2.67000008
   16.80249977   95.63030243    4.90999985    2.67000008
   16.80583191  109.18900299    4.90999985    2.66000009
   16.80888748  110.72799683    4.90999985    2.66000009
   16.81222153  101.23899841    4.90999985    2.64000010
   16.81555557  102.52100372    4.90999985    2.67000008
   16.81861115  104.72000122    4.90999985    2.66000009
   16.82194519  112.73100281    4.90999985    2.66000009
   16.82805634  112.73100281    4.90999985    2.67000008
   16.83194542  101.17900085    4.90999985    2.67000008
   16.83527756   99.69339752    4.90999985    2.66000009
   16.83861160  101.31700134    4.90999985    2.67000008
   16.84166718  102.96399689    4.90999985    2.67000008
   16.84500122  104.17700195    4.90999985    2.67000008
   16.84833336  109.12000275    4.90999985    2.67000008
   16.85138893  106.30500031    4.90999985    2.67000008
   16.85472298  104.65499878    4.90999985    2.67000008
   16.85777855  106.96900177    4.90999985    2.67000008
   16.86111069  116.53199768    4.90999985    2.67000008
   16.86444473  113.89800262    4.90999985    2.67000008
   16.86499977  116.56800079    4.90999985    2.67000008
   16.87083435  116.56800079    4.90999985    2.67000008
   16.87500000  108.13300323    4.90999985    2.67000008
   16.87805557  113.42700195    4.90999985    2.67000008
   16.88138962  118.84600067    4.90999985    2.67000008
   16.88472176  103.36199951    4.90999985    2.67000008
   16.88777733  101.36699677    4.90999985    2.67000008
   16.89111137  107.10299683    4.90999985    2.67000008
   16.89444351  126.13600159    4.90999985    2.67000008
   16.89749908  111.51399994    4.90999985    2.67000008
   16.89833260  112.47399902    4.90999985    2.67000008
   16.90138817  106.16300201    4.90999985    2.67000008
   16.90444374  118.45099640    4.90999985    2.67000008
   16.90777779  110.86299896    4.90999985    2.67000008
   16.91361046  110.86299896    4.90999985    2.67000008
   16.91777802  106.67800140    4.90999985    2.67000008
   16.92083359  103.82599640    4.90999985    2.67000008
   16.92416573  106.33300018    4.90999985    2.67000008
   16.92749977  106.47699738    4.90999985    2.67000008
   16.93055534  108.13899994    4.90999985    2.67000008
   16.93166542  105.14299774    4.90999985    2.67000008
   16.93444443  100.25499725    4.90999985    2.66000009
   16.93750000  109.74700165    4.90999985    2.61999989
   16.94083214  259.50601196    4.90999985    2.42000008
   16.94416618   -1.00000000    4.90999985    1.89999998
   16.94722176  105.05799866    4.90999985    1.80999994
   16.95055580  125.63600159    4.90999985    2.61999989
   16.95639038  125.63600159    4.90999985    2.13000011
   16.96055603  100.36100006    4.90999985    2.13000011
   16.96389008   97.73850250    4.90999985    2.67000008
   16.96500015  102.35399628    4.90999985    2.67000008
   16.96750069  100.98799896    4.90999985    2.67000008
   16.97083473   95.63990021    4.90999985    2.66000009
   16.97389030   95.59629822    4.90999985    2.67000008
   16.97722244   97.13439941    4.90999985    2.67000008
   16.98027802   95.75569916    4.90999985    2.67000008
   16.98361206   89.32109833    4.90999985    2.67000008
   16.98694420   90.03630066    4.90999985    2.66000009
   16.98999977   85.73549652    4.90999985    2.67000008
   16.99333382   89.98210144    4.90999985    2.64000010
   16.99916649   89.98210144    4.90999985    2.64000010
   17.00333405   93.62719727    4.90999985    2.66000009
   17.00666618   95.29309845    4.90999985    2.66000009
   17.01000023   92.43679810    4.90999985    2.67000008
   17.01305580   90.66850281    4.90999985    2.67000008
   17.01638794   90.35780334    4.90999985    2.67000008
   17.01944351   96.80699921    4.90999985    2.67000008
   17.02277756   95.05130005    4.90999985    2.67000008
   17.02611160   97.06670380    4.90999985    2.66000009
   17.02916718   94.25830078    4.90999985    2.67000008
   17.03166580   96.85520172    4.90999985    2.67000008
   17.03305435   96.62909698    4.90999985    2.66000009
   17.03610992   95.69059753    4.90999985    2.67000008
   17.04222107   95.69059753    4.90999985    2.66000009
   17.04638863   97.11190033    4.90999985    2.67000008
   17.04944420   99.54109955    4.90999985    2.67000008
   17.05277634   90.42459869    4.90999985    2.67000008
   17.05583191   97.05310059    4.90999985    2.67000008
   17.05916595   97.50890350    4.90999985    2.67000008
   17.06250000   93.48020172    4.90999985    2.66000009
   17.06499863   93.15239716    4.90999985    2.66000009
   17.06611061   89.24569702    4.90999985    2.66000009
   17.06916809   89.69830322    4.90999985    2.67000008
   17.07250023   91.86299896    4.90999985    2.67000008
   17.07583427   90.49680328    4.90999985    2.67000008
   17.07888985   87.56340027    4.90999985    2.67000008
   17.08500099   87.56340027    4.90999985    2.67000008
   17.08916664   91.55539703    4.90999985    2.66000009
   17.09222221   93.05480194    4.90999985    2.67000008
   17.09555626   84.18070221    4.90999985    2.66000009
   17.09833336   87.20010376    4.90999985    2.66000009
   17.09916687   87.35959625    4.90999985    2.66000009
   17.10222244   86.44529724    4.90999985    2.67000008
   17.10555649   88.55190277    4.90999985    2.66000009
   17.10888863   87.38480377    4.90999985    2.67000008
   17.11194420   97.81069946    4.90999985    2.67000008
   17.11527824   96.61579895    4.90999985    2.67000008
   17.11861038   90.56379700    4.90999985    2.66000009
   17.12166595   93.28079987    4.90999985    2.66000009
   17.12777710   93.28079987    4.90999985    2.66000009
   17.13194466   99.59210205    4.90999985    2.67000008
   17.13527679   96.00589752    4.90999985    2.67000008
   17.13833237  101.38700104    4.90999985    2.66000009
   17.14166641   96.10479736    4.90999985    2.66000009
   17.14500046   89.63760376    4.90999985    2.67000008
   17.14805603   99.22419739    4.90999985    2.66000009
   17.15138817  103.10700226    4.90999985    2.66000009
   17.15472221   98.35389709    4.90999985    2.67000008
   17.15777779   97.21820068    4.90999985    2.66000009
   17.16110992   91.98130035    4.90999985    2.66000009
   17.16416550  102.07099915    4.90999985    2.67000008
   17.16499901   89.93139648    4.90999985    2.67000008
   17.17055511   89.93139648    4.90999985    2.67000008
   17.17472076   94.86930084    4.90999985    2.66000009
   17.17805481   90.38719940    4.90999985    2.66000009
   17.18138885   91.84799957    4.90999985    2.66000009
   17.18444443   84.65480042    4.90999985    2.66000009
   17.18777657   96.73760223    4.90999985    2.66000009
   17.19083214   86.65409851    4.90999985    2.66000009
   17.19416618   90.46330261    4.90999985    2.66000009
   17.19749832   97.44029999    4.90999985    2.66000009
   17.19833183   86.98660278    4.90999985    2.67000008
   17.20111275   89.49420166    4.90999985    2.66000009
   17.20416832   88.87969971    4.90999985    2.66000009
   17.20750046   87.81860352    4.90999985    2.64000010
   17.21361160   87.81860352    4.90999985    2.66000009
   17.21777916   92.68340302    4.90999985    2.67000008
   17.22083473   88.12740326    4.90999985    2.66000009
   17.22416687   95.88030243    4.90999985    2.64000010
   17.22722244   88.07129669    4.90999985    2.66000009
   17.23055649   86.52390289    4.90999985    2.66000009
   17.23166656   89.62310028    4.90999985    2.66000009
   17.23416710   94.29709625    4.90999985    2.66000009
   17.23722267   92.25530243    4.90999985    2.66000009
   17.24055672   90.63459778    4.90999985    2.66000009
   17.24416733   89.40589905    4.90999985    2.66000009
   17.24722290   98.06529999    4.90999985    2.66000009
   17.25055504  105.54499817    4.90999985    2.67000008
   17.25638962  105.54499817    4.90999985    2.66000009
   17.26055527   91.21189880    4.90999985    2.67000008
   17.26361084   92.91580200    4.90999985    2.67000008
   17.26499939   91.31999969    4.90999985    2.66000009
   17.26749992   90.70400238    4.90999985    2.67000008
   17.27055550   87.87660217    4.90999985    2.67000008
   17.27388954   88.89330292    4.90999985    2.66000009
   17.27722168   97.80139923    4.90999985    2.67000008
   17.28027725   92.54759979    4.90999985    2.66000009
   17.28361130   90.98410034    4.90999985    2.66000009
   17.28694344   90.80729675    4.90999985    2.67000008
   17.28999901   99.07620239    4.90999985    2.67000008
   17.29333305   93.63520050    4.90999985    2.66000009
   17.29916573   93.63520050    4.90999985    2.67000008
   17.30333328   95.48049927    4.90999985    2.66000009
   17.30666542   89.57659912    4.90999985    2.67000008
   17.30972099   92.62300110    4.90999985    2.66000009
   17.31305504   95.09799957    4.90999985    2.66000009
   17.31638718   86.51629639    4.90999985    2.66000009
   17.31944466   91.66600037    4.90999985    2.66000009
   17.32277870   84.50309753    4.90999985    2.67000008
   17.32583427   90.38220215    4.90999985    2.67000008
   17.32916832   93.27290344    4.90999985    2.67000008
   17.33166695   97.48459625    4.90999985    2.66000009
   17.33277893   93.57250214    4.90999985    2.67000008
   17.33583450   92.70839691    4.90999985    2.66000009
   17.34194565   92.70839691    4.90999985    2.67000008
   17.34611130   92.00689697    4.90999985    2.67000008
   17.34944534   -1.00000000    4.90999985    2.66000009
   17.35277748   97.22119904    4.90999985    2.67000008
   17.35583305   94.70980072    4.90999985    2.64000010
   17.35916710   90.14430237    4.90999985    2.67000008
   17.36222267  100.57800293    4.90999985    2.66000009
   17.36499977   90.83840179    4.90999985    2.66000009
   17.36611176   92.54850006    4.90999985    2.66000009
   17.36944389   98.22139740    4.90999985    2.66000009
   17.37249947   85.87490082    4.90999985    2.67000008
   17.37583351   93.51170349    4.90999985    2.67000008
   17.37888908   95.95010376    4.90999985    2.66000009
   17.38500023   95.95010376    4.90999985    2.64000010
   17.38916588   94.62290192    4.90999985    2.66000009
   17.39222145   83.06539917    4.90999985    2.67000008
   17.39555550   94.54689789    4.90999985    2.66000009
   17.41361046   98.31649780    4.90999985    2.66000009
   17.41527748   93.12129974    4.90999985    2.66000009
   17.41860962   98.33339691    4.90999985    2.64000010
   17.42166519  110.97399902    4.90999985    2.64000010
   17.42805481  110.97399902    4.90999985    2.66000009
   17.43222237  101.50299835    4.90999985    2.66000009
   17.43527603   99.79660034    4.90999985    2.64000010
   17.43861008  102.67600250    4.90999985    2.64000010
   17.44194412  112.90299988    4.90999985    2.66000009
   17.44499969  107.48899841    4.90999985    2.66000009
   17.44861031   -1.00000000    4.90999985    2.66000009
   17.45194435   -1.00000000    4.90999985    2.66000009
   17.45527840   98.45709991    4.90999985    2.66000009
   17.45833397   94.22540283    4.90999985    2.67000008
   17.46166801   94.06310272    4.90999985    2.67000008
   17.46472359   93.50309753    4.90999985    2.66000009
   17.47083473   93.50309753    4.90999985    2.66000009
   17.47500038   89.25000000    4.90999985    2.66000009
   17.47805595   90.65969849    4.90999985    2.66000009
   17.48027802   94.24629974    4.90999985    2.66000009
   17.48194504   93.20649719    4.90999985    2.67000008
   17.48500061   97.65799713    4.90999985    2.66000009
   17.48833275   99.12539673    4.90999985    2.67000008
   17.49166679   92.59940338    4.90999985    2.66000009
   17.49472237   89.87920380    4.90999985    2.67000008
   17.49805641   -1.00000000    4.90999985    2.67000008
   17.50138855   -1.00000000    4.90999985    2.66000009
   17.50444412  107.82099915    4.90999985    2.67000008
   17.50777817  100.27300262    4.90999985    2.66000009
   17.51361084  100.27300262    4.90999985    2.66000009
   17.51777840  108.18299866    4.90999985    2.66000009
   17.52111053   91.39720154    4.90999985    2.66000009
   17.52416611   94.33229828    4.90999985    2.66000009
   17.52750015  101.86499786    4.90999985    2.67000008
   17.53083229   97.74130249    4.90999985    2.66000009
   17.53388786   96.11949921    4.90999985    2.64000010
   17.53722191   88.42359924    4.90999985    2.67000008
   17.54027748  106.58000183    4.90999985    2.67000008
   17.54361153  102.00199890    4.90999985    2.67000008
   17.54694366   -1.00000000    4.90999985    2.66000009
   17.55055428   -1.00000000    4.90999985    2.66000009
   17.55638885   -1.00000000    4.90999985    2.66000009
   17.56055450  106.42500305    4.90999985    2.67000008
   17.56388855  100.87799835    4.90999985    2.66000009
   17.56722260   90.33760071    4.90999985    2.67000008
   17.57027817   86.22949982    4.90999985    2.67000008
   17.57361221   89.59719849    4.90999985    2.67000008
   17.57694626   87.37300110    4.90999985    2.66000009
   17.58000183   96.31880188    4.90999985    2.66000009
   17.58083344   97.19020081    4.90999985    2.66000009
   17.58361244   88.16799927    4.90999985    2.64000010
   17.58694458   94.46009827    4.90999985    2.64000010
   17.59027863  100.23100281    4.90999985    2.64000010
   17.59333420  193.37699890    4.90999985    2.61999989
   17.60333443   -1.00000000    4.90999985    2.66000009
   17.60666656   -1.00000000    4.90999985    2.66000009
   17.61000061  109.04699707    4.90999985    2.64000010
   17.61305618  100.77500153    4.90999985    2.66000009
   17.61416626   99.25789642    4.90999985    2.64000010
   17.61694527  108.61100006    4.90999985    2.66000009
   17.62000084  110.79199982    4.90999985    2.64000010
   17.62333298   96.26679993    4.90999985    2.67000008
   17.62638855  100.64399719    4.90999985    2.66000009
   17.62972260   92.82859802    4.90999985    2.66000009
   17.63305473   87.85369873    4.90999985    2.66000009
   17.63611031  103.98100281    4.90999985    2.66000009
   17.64222145  103.98100281    4.90999985    2.66000009
   17.64638901   -1.00000000    4.90999985    2.66000009
   17.64999962   -1.00000000    4.90999985    2.64000010
   17.65333366   -1.00000000    4.90999985    2.64000010
   17.65638924   -1.00000000    4.90999985    2.66000009
   17.65972137  108.98500061    4.90999985    2.57999992
   17.66277695   99.23880005    4.90999985    2.59999990
   17.66611099   97.68060303    4.90999985    2.57999992
   17.66944313  101.16200256    4.90999985    2.66000009
   17.67249870   86.52310181    4.90999985    2.66000009
   17.67583275   85.62640381    4.90999985    2.66000009
   17.67916679   90.88009644    4.90999985    2.64000010
   17.68083191   97.93689728    4.90999985    2.64000010
   17.68499947   97.93689728    4.90999985    2.66000009
   17.68916512   94.32800293    4.90999985    2.66000009
   17.69249916   -1.00000000    4.90999985    2.66000009
   17.69555473   -1.00000000    4.90999985    2.66000009
   17.69888878   -1.00000000    4.90999985    2.64000010
   17.70222282   -1.00000000    4.90999985    2.64000010
   17.70527840   -1.00000000    4.90999985    2.66000009
   17.70861244  106.23899841    4.90999985    2.66000009
   17.71166801  108.99500275    4.90999985    2.66000009
   17.71416664   91.52780151    4.90999985    2.64000010
   17.71527863  100.95300293    4.90999985    2.64000010
   17.71861076  103.33499908    4.90999985    2.66000009
   17.72194481  103.93399811    4.90999985    2.66000009
   17.72777748  103.93399811    4.90999985    2.66000009
   17.73194504  103.48699951    4.90999985    2.66000009
   17.73527718  103.39700317    4.90999985    2.66000009
   17.73861122  110.61699677    4.90999985    2.64000010
   17.74166679   90.22920227    4.90999985    2.64000010
   17.74500084   -1.00000000    4.90999985    2.66000009
   17.74861145   -1.00000000    4.90999985    2.64000010
   17.75194359   -1.00000000    4.90999985    2.64000010
   17.75499916   -1.00000000    4.90999985    2.66000009
   17.75833321   -1.00000000    4.90999985    2.64000010
   17.76138878  117.46099854    4.90999985    2.67000008
   17.76472282  109.78600311    4.90999985    2.67000008
   17.77083397  109.78600311    4.90999985    2.66000009
   17.77499962   95.13110352    4.90999985    2.66000009
   17.77805519   99.17749786    4.90999985    2.66000009
   17.78083229  110.59799957    4.90999985    2.66000009
   17.78166580  102.99099731    4.90999985    2.66000009
   17.78499985  105.76300049    4.90999985    2.66000009
   17.78833199   97.02390289    4.90999985    2.64000010
   17.79138756   94.99250031    4.90999985    2.67000008
   17.79472160  105.45099640    4.90999985    2.66000009
   17.79777718   93.24359894    4.90999985    2.66000009
   17.80111122   98.80339813    4.90999985    2.66000009
   17.80444336   90.93750000    4.90999985    2.66000009
   17.80749893   95.43910217    4.90999985    2.66000009
   17.81361008   95.43910217    4.90999985    2.64000010
   17.81777954   86.98639679    4.90999985    2.64000010
   17.82083511   90.70610046    4.90999985    2.64000010
   17.82416725   94.01730347    4.90999985    2.64000010
   17.82750130  104.68499756    4.90999985    2.64000010
   17.83055687   94.36499786    4.90999985    2.66000009
   17.83388901   91.56790161    4.90999985    2.66000009
   17.83722305   93.13590240    4.90999985    2.66000009
   17.84027863   87.64189911    4.90999985    2.66000009
   17.84361267   91.15799713    4.90999985    2.64000010
   17.84694481  103.27100372    4.90999985    2.66000009
   17.84861183   97.78320313    4.90999985    2.66000009
   17.85055542   99.55940247    4.90999985    2.66000009
   17.85639000   99.55940247    4.90999985    2.64000010
   17.86055565  110.41799927    4.90999985    2.66000009
   17.86388969   96.84259796    4.90999985    2.66000009
   17.86694527   95.64040375    4.90999985    2.66000009
   17.87027740  104.44000244    4.90999985    2.66000009
   17.87361145   95.39389801    4.90999985    2.64000010
   17.87666702   90.97930145    4.90999985    2.66000009
   17.88000107   94.95590210    4.90999985    2.64000010
   17.88194466  101.06099701    4.90999985    2.55999994
   17.88361168  100.52899933    4.90999985    2.61999989
   17.88666725   98.01339722    4.90999985    2.64000010
   17.88999939   94.84750366    4.90999985    2.64000010
   17.89333344  102.44799805    4.90999985    2.64000010
   17.89916611  102.44799805    4.90999985    2.66000009
   17.90333366   95.32830048    4.90999985    2.66000009
   17.90666580   96.52880096    4.90999985    2.64000010
   17.90999985   87.82289886    4.90999985    2.64000010
   17.91305542   87.19219971    4.90999985    2.64000010
   17.91555595   99.61199951    4.90999985    2.66000009
   17.91694450   86.62349701    4.90999985    2.64000010
   17.92000008   95.92970276    4.90999985    2.66000009
   17.92333221   93.89640045    4.90999985    2.64000010
   17.92666626   96.16169739    4.90999985    2.66000009
   17.92972183  101.04100037    4.90999985    2.66000009
   17.93305397   99.83300018    4.90999985    2.64000010
   17.93610954   99.99230194    4.90999985    2.66000009
   17.94222069   99.99230194    4.90999985    2.66000009
   17.94638824   88.40429688    4.90999985    2.64000010
   17.94888878   96.92549896    4.90999985    2.64000010
   17.94972038   93.40950012    4.90999985    2.64000010
   17.95305634   92.77320099    4.90999985    2.64000010
   17.95639038  108.42400360    4.90999985    2.64000010
   17.95944595   86.90789795    4.90999985    2.66000009
   17.96277809  102.77700043    4.90999985    2.64000010
   17.96611214  101.80400085    4.90999985    2.66000009
   17.96916771   97.08470154    4.90999985    2.64000010
   17.97249985  104.68399811    4.90999985    2.64000010
   17.97555542  102.41500092    4.90999985    2.64000010
   17.97888947  102.74099731    4.90999985    2.59999990
   17.98500061  102.74099731    4.90999985    2.64000010
   17.98916626  106.73500061    4.90999985    2.55999994
   17.99222183  110.49099731    4.90999985    2.42000008
   17.99555588  113.94899750    4.90999985    2.32999992
   17.99888992  107.40899658    4.90999985    2.34999990
   18.00194359  116.49299622    4.90999985    2.39000010
   18.00527763  187.57200623    4.90999985    2.30999994
   18.00861168  106.15499878    4.90999985    1.96000004
   18.01166725  106.70899963    4.90999985    2.15000010
   18.01499939   94.63619995    4.90999985    2.25000000
   18.01583290  121.08300018    4.90999985    2.32999992
   18.01861000  106.12799835    4.90999985    2.28999996
   18.02166557  109.01499939    4.90999985    2.48000002
   18.02777672  109.01499939    4.90999985    2.51999998
   18.03194427  111.59899902    4.90999985    2.50000000
   18.03527641  104.42199707    4.90999985    2.51999998
   18.03833199   95.83280182    4.90999985    2.55999994
   18.04166603  104.90899658    4.90999985    2.53999996
   18.04500008  108.81900024    4.90999985    2.64000010
   18.04805565  105.05899811    4.90999985    2.61999989
   18.04916573  112.98899841    4.90999985    2.64000010
   18.05166626  107.53299713    4.90999985    2.64000010
   18.05472183  101.51399994    4.90999985    2.64000010
   18.05805397  119.72899628    4.90999985    2.64000010
   18.06138802  113.48699951    4.90999985    2.64000010
   18.06444359  107.99900055    4.90999985    2.59999990
   18.07055664  107.99900055    4.90999985    2.66000009
   18.07472229   95.76879883    4.90999985    2.57999992
   18.07805634  105.55200195    4.90999985    2.46000004
   18.08139038   95.01069641    4.90999985    2.57999992
   18.08277893  107.64299774    4.90999985    2.64000010
   18.08500099   99.49739838    4.90999985    2.64000010
   18.08805656   86.87840271    4.90999985    2.64000010
   18.09138870   98.62049866    4.90999985    2.64000010
   18.09472275   90.49549866    4.90999985    2.64000010
   18.09777832   94.00810242    4.90999985    2.64000010
   18.10111237   99.02159882    4.90999985    2.64000010
   18.10444450   90.75019836    4.90999985    2.64000010
   18.10750008   88.20980072    4.90999985    2.61999989
   18.11361122   88.20980072    4.90999985    2.64000010
   18.11777878   89.90200043    4.90999985    2.53999996
   18.12083435  104.25700378    4.90999985    2.53999996
   18.12416649  100.73999786    4.90999985    2.42000008
   18.12722206   97.34300232    4.90999985    2.51999998
   18.13055611   99.86789703    4.90999985    2.40000010
   18.13388824  106.18299866    4.90999985    2.64000010
   18.13694382   96.73380280    4.90999985    2.64000010
   18.14027786   97.83090210    4.90999985    2.64000010
   18.14361191  103.18499756    4.90999985    2.64000010
   18.14666748  106.50399780    4.90999985    2.64000010
   18.14944458   99.57869720    4.90999985    2.61999989
   18.15055466   99.00019836    4.90999985    2.64000010
   18.15638924   99.00019836    4.90999985    2.64000010
   18.16055489   99.44989777    4.90999985    2.64000010
   18.16361046  101.23200226    4.90999985    2.61999989
   18.16694450  106.44200134    4.90999985    2.64000010
   18.17027664   97.93319702    4.90999985    2.64000010
   18.17333221   96.41339874    4.90999985    2.61999989
   18.17666626  100.81700134    4.90999985    2.59999990
   18.18000031  101.56600189    4.90999985    2.64000010
   18.18277740   97.78869629    4.90999985    2.64000010
   18.18361092   94.28089905    4.90999985    2.64000010
   18.18666649  103.49299622    4.90999985    2.59999990
   18.18999863   99.76260376    4.90999985    2.61999989
   18.19333267   97.46620178    4.90999985    2.61999989
   18.19916534   97.46620178    4.90999985    2.64000010
   18.20333481  106.07800293    4.90999985    2.61999989
   18.20666695   93.93969727    4.90999985    2.61999989
   18.20972252  103.29000092    4.90999985    2.64000010
   18.21305656   91.14189911    4.90999985    2.64000010
   18.21611214   97.44899750    4.90999985    2.64000010
   18.21666718  102.33100128    4.90999985    2.64000010
   18.21972275   99.19229889    4.90999985    2.64000010
   18.22305679   99.02249908    4.90999985    2.64000010
   18.22638893   97.49749756    4.90999985    2.64000010
   18.22944450   99.21669769    4.90999985    2.64000010
   18.23277855  106.66100311    4.90999985    2.64000010
   18.23583412  108.88200378    4.90999985    2.61999989
   18.24194527  108.88200378    4.90999985    2.64000010
   18.24611092  114.44999695    4.90999985    2.61999989
   18.24944496  103.00499725    4.90999985    2.51999998
   18.25000000  106.77300262    4.90999985    2.44000006
   18.25305557  118.74099731    4.90999985    2.25000000
   18.25638962  115.03099823    4.90999985    2.42000008
   18.25972176  124.19200134    4.90999985    2.39000010
   18.26277733  116.67900085    4.90999985    2.19000006
   18.26611137  136.56399536    4.90999985    2.28999996
   18.26916695  103.43900299    4.90999985    2.32999992
   18.27249908  119.75599670    4.90999985    2.25000000
   18.27583313  100.24199677    4.90999985    2.46000004
   18.27888870  105.81600189    4.90999985    2.40000010
   18.28499985  105.81600189    4.90999985    2.59999990
   18.28916550  103.16699982    4.90999985    2.51999998
   18.29222107  121.49500275    4.90999985    2.59999990
   18.29555511  108.07099915    4.90999985    2.59999990
   18.29861069   97.62079620    4.90999985    2.64000010
   18.30194283  103.44300079    4.90999985    2.64000010
   18.30527687  101.10600281    4.90999985    2.64000010
   18.30833244   95.46389771    4.90999985    2.61999989
   18.31166649   97.67240143    4.90999985    2.64000010
   18.31499863   96.43969727    4.90999985    2.64000010
   18.31611061   99.99909973    4.90999985    2.64000010
   18.31861115  103.92800140    4.90999985    2.61999989
   18.32166672   98.59380341    4.90999985    2.64000010
   18.32777786   98.59380341    4.90999985    2.61999989
   18.33194542   94.07820129    4.90999985    2.61999989
   18.33527756  101.41500092    4.90999985    2.64000010
   18.33833313  100.26499939    4.90999985    2.61999989
   18.34166718   90.82630157    4.90999985    2.61999989
   18.34472275  102.70500183    4.90999985    2.64000010
   18.34805679   96.53900146    4.90999985    2.61999989
   18.34944534  100.46700287    4.90999985    2.64000010
   18.35166740  100.06900024    4.90999985    2.61999989
   18.35472298   96.63559723    4.90999985    2.61999989
   18.35805511   97.21630096    4.90999985    2.61999989
   18.36138916  100.17500305    4.90999985    2.61999989
   18.36444473  105.41300201    4.90999985    2.61999989
   18.37055588  105.41300201    4.90999985    2.61999989
   18.37472153   97.18859863    4.90999985    2.61999989
   18.37805557  105.25399780    4.90999985    2.61999989
   18.38111115   93.71189880    4.90999985    2.61999989
   18.38305473  102.17800140    4.90999985    2.61999989
   18.38500023  102.57399750    4.90999985    2.59999990
   18.38805580  103.94599915    4.90999985    2.55999994
   18.39138794  111.69000244    4.90999985    2.48000002
   18.39444351   99.19779968    4.90999985    2.40000010
   18.39777756  102.56300354    4.90999985    2.36999989
   18.40111160  101.65499878    4.90999985    2.53999996
   18.40416718   85.79640198    4.90999985    2.59999990
   18.40749931  101.95200348    4.90999985    2.59999990
   18.41333389  101.95200348    4.90999985    2.59999990
   18.43194389  102.19100189    4.90999985    2.57999992
   18.43499947   99.58719635    4.90999985    2.57999992
   18.43833160   84.54979706    4.90999985    2.48000002
   18.44166565   97.56999969    4.90999985    2.57999992
   18.44472122  105.09899902    4.90999985    2.53999996
   18.44805527  103.74700165    4.90999985    2.59999990
   18.45111275  101.67700195    4.90999985    2.59999990
   18.45666695  101.67700195    4.90999985    2.59999990
   18.46055603   97.77600098    4.90999985    2.59999990
   18.46389008  100.10900116    4.90999985    2.59999990
   18.46500015  105.70099640    4.90999985    2.59999990
   18.46750069  104.96099854    4.90999985    2.55999994
   18.47083473   96.67690277    4.90999985    2.55999994
   18.47416687  104.09799957    4.90999985    2.55999994
   18.47722244  102.23699951    4.90999985    2.48000002
   18.48055649   99.11599731    4.90999985    2.57999992
   18.48361206   97.51509857    4.90999985    2.59999990
   18.48694420  108.85500336    4.90999985    2.59999990
   18.49027824  103.94499969    4.90999985    2.59999990
   18.49333382  104.80500031    4.90999985    2.59999990
   18.49944496  104.80500031    4.90999985    2.59999990
   18.50361061  106.64399719    4.90999985    2.59999990
   18.50722313  101.26899719    4.90999985    2.59999990
   18.51027870   93.55339813    4.90999985    2.59999990
   18.51361084   96.64009857    4.90999985    2.59999990
   18.51694489  102.96600342    4.90999985    2.59999990
   18.52000046   98.28430176    4.90999985    2.59999990
   18.52333260  102.49500275    4.90999985    2.59999990
   18.52638817   94.21299744    4.90999985    2.59999990
   18.52972221   95.56179810    4.90999985    2.57999992
   18.53166580  101.59400177    4.90999985    2.59999990
   18.53333282   96.13829803    4.90999985    2.59999990
   18.53666687  107.43699646    4.90999985    2.59999990
   18.54222107  107.43699646    4.90999985    2.59999990
   18.54638863   92.55799866    4.90999985    2.59999990
   18.54972076  114.10299683    4.90999985    2.57999992
   18.55277634  100.19799805    4.90999985    2.55999994
   18.55611038  104.87400055    4.90999985    2.59999990
   18.55916595  110.28199768    4.90999985    2.59999990
   18.56250000  111.25199890    4.90999985    2.59999990
   18.56499863   98.30000305    4.90999985    2.59999990
   18.56611061  101.81400299    4.90999985    2.59999990
   18.56944466   96.05349731    4.90999985    2.57999992
   18.57277870  104.00099945    4.90999985    2.59999990
   18.57583427   99.79810333    4.90999985    2.59999990
   18.57916832  101.43599701    4.90999985    2.59999990
   18.58500099  101.43599701    4.90999985    2.59999990
   18.58916664   94.61730194    4.90999985    2.57999992
   18.59250069   99.87709808    4.90999985    2.57999992
   18.59555626  107.11799622    4.90999985    2.57999992
   18.59833336  100.79900360    4.90999985    2.53999996
   18.59916687   93.78359985    4.90999985    2.59999990
   18.60250092   96.32910156    4.90999985    2.59999990
   18.60583305   97.89440155    4.90999985    2.59999990
   18.60888863   98.84580231    4.90999985    2.59999990
   18.61222267  111.06800079    4.90999985    2.59999990
   18.61555672  101.47399902    4.90999985    2.59999990
   18.61861038  100.82599640    4.90999985    2.59999990
   18.62194443   99.72630310    4.90999985    2.59999990
   18.62805557   99.72630310    4.90999985    2.57999992
   18.63194466  109.56900024    4.90999985    2.59999990
   18.63527679  104.87300110    4.90999985    2.59999990
   18.63861084  103.08799744    4.90999985    2.59999990
   18.64166641  103.41600037    4.90999985    2.57999992
   18.64500046  101.36499786    4.90999985    2.59999990
   18.64833260   90.12599945    4.90999985    2.59999990
   18.65138817   93.17310333    4.90999985    2.59999990
   18.65472221   97.90640259    4.90999985    2.59999990
   18.65777779   95.42700195    4.90999985    2.59999990
   18.66110992   99.03910065    4.90999985    2.59999990
   18.66444397   86.09400177    4.90999985    2.59999990
   18.66499901  100.54900360    4.90999985    2.59999990
   18.67083359  100.54900360    4.90999985    2.57999992
   18.67499924   96.50090027    4.90999985    2.59999990
   18.67805481   99.72769928    4.90999985    2.59999990
   18.68138885   93.72720337    4.90999985    2.57999992
   18.68472099   99.86019897    4.90999985    2.57999992
   18.68777657   95.91609955    4.90999985    2.59999990
   18.69111061  102.55999756    4.90999985    2.57999992
   18.69444275  101.24099731    4.90999985    2.59999990
   18.69749832   97.83820343    4.90999985    2.59999990
   18.69833183  102.45600128    4.90999985    2.57999992
   18.70111275   96.43090057    4.90999985    2.57999992
   18.70444489   96.37300110    4.90999985    2.57999992
   18.70777893  103.54699707    4.90999985    2.59999990
   18.71361160  103.54699707    4.90999985    2.57999992
   18.71777916  106.63899994    4.90999985    2.57999992
   18.72111130  100.06199646    4.90999985    2.57999992
   18.72444534  105.08399963    4.90999985    2.59999990
   18.72777748  101.13800049    4.90999985    2.57999992
   18.73111153  102.47599792    4.90999985    2.57999992
   18.73166656  100.75499725    4.90999985    2.57999992
   18.73444557   99.59940338    4.90999985    2.57999992
   18.73777771   95.83570099    4.90999985    2.57999992
   18.74111176   99.67729950    4.90999985    2.55999994
   18.74416733   97.65219879    4.90999985    2.57999992
   18.74749947  105.57599640    4.90999985    2.57999992
   18.75083351  110.40799713    4.90999985    2.57999992
   18.75638962  110.40799713    4.90999985    2.57999992
   18.76055527  101.19200134    4.90999985    2.59999990
   18.76388931   99.40219879    4.90999985    2.59999990
   18.76499939  103.70200348    4.90999985    2.57999992
   18.76722145  106.33200073    4.90999985    2.57999992
   18.77055550  104.09700012    4.90999985    2.57999992
   18.77388954   94.08630371    4.90999985    2.55999994
   18.77694511   95.34490204    4.90999985    2.57999992
   18.78027725   99.46330261    4.90999985    2.57999992
   18.78361130  102.88899994    4.90999985    2.57999992
   18.78666687  100.23899841    4.90999985    2.57999992
   18.78999901  105.91100311    4.90999985    2.57999992
   18.79305458  106.34899902    4.90999985    2.57999992
   18.79944420  106.34899902    4.90999985    2.57999992
   18.80333328  113.15499878    4.90999985    2.57999992
   18.80666542  102.78399658    4.90999985    2.57999992
   18.80999947  107.59999847    4.90999985    2.55999994
   18.81305504  112.77700043    4.90999985    2.55999994
   18.81638718  107.62000275    4.90999985    2.55999994
   18.81972313  110.53800201    4.90999985    2.57999992
   18.82277870  100.66000366    4.90999985    2.57999992
   18.82611275  106.14700317    4.90999985    2.57999992
   18.82944489  104.60399628    4.90999985    2.57999992
   18.83166695  101.53800201    4.90999985    2.57999992
   18.83277893  114.52799988    4.90999985    2.57999992
   18.83611107  112.61900330    4.90999985    2.55999994
   18.84222221  112.61900330    4.90999985    2.55999994
   18.84638977  107.64800262    4.90999985    2.57999992
   18.84944534   96.64589691    4.90999985    2.55999994
   18.85277748  101.07299805    4.90999985    2.57999992
   18.85611153  111.90799713    4.90999985    2.57999992
   18.85916710  102.00299835    4.90999985    2.57999992
   18.86250114  106.65000153    4.90999985    2.57999992
   18.86499977   98.40599823    4.90999985    2.55999994
   18.86611176   94.58390045    4.90999985    2.55999994
   18.86944389  104.94699860    4.90999985    2.55999994
   18.87277794  100.16899872    4.90999985    2.57999992
   18.87583351  102.85399628    4.90999985    2.57999992
   18.87916756  101.23500061    4.90999985    2.67000008
   18.88500023  101.23500061    0.11000000    0.47999999
   18.88916588   96.29380035    0.07000000    0.17000000
   18.89249992  104.19400024    0.07000000    0.01000000
   18.89555550  100.68299866    0.07000000    0.01000000
   18.89833260  104.51200104    0.07000000    0.01000000
   18.89916611  102.67800140    0.07000000    0.01000000
   18.90250015  106.96299744    0.07000000    0.01000000
   18.90583229  107.71499634    0.07000000    0.01000000
   18.90888786  103.71600342    0.07000000    0.01000000
   18.91222191  101.59799957    0.07000000    0.01000000
   18.91555595  103.20800018    0.07000000    0.01000000
   18.91860962  101.83300018    0.07000000    0.01000000
   18.92194366   99.02290344    0.07000000    0.01000000
   18.92777634   99.02290344    0.07000000    0.01000000
   18.93194389  105.37799835    0.07000000    0.01000000
   18.93527603  102.86100006    0.07000000    0.01000000
   18.93861008  100.84799957    0.07000000    0.01000000
   18.94166565  103.93499756    0.07000000    0.01000000
   18.94499969  104.02500153    0.07000000    0.01000000
   18.94833183  104.14299774    0.07000000    0.01000000
   18.95138931   90.81079865    0.07000000    0.01000000
   18.95472336  104.13200378    0.07000000    0.01000000
   18.95777893  104.18900299    0.07000000    0.01000000
   18.96111107   99.77690125    0.07000000    0.01000000
   18.96444511  100.76899719    0.07000000    0.01000000
   18.96500015   97.27919769    0.07000000    0.01000000
   18.97083473   97.27919769    0.07000000    0.01000000
   18.97472191   96.36710358    0.07000000    0.01000000
   18.97805595   95.35870361    0.07000000    0.01000000
   18.98139000   99.47789764    0.07000000    0.01000000
   18.98444557  104.81999969    0.07000000    0.01000000
   18.98777771  104.46900177    0.07000000    0.01000000
   18.99111176  102.51599884    0.07000000    0.01000000
   18.99416733   99.25090027    0.07000000    0.01000000
   18.99749947   94.94599915    0.07000000    0.01000000
   18.99833298  107.15299988    0.07000000    0.01000000
   19.00111198  106.14600372    0.07000000    0.01000000
   19.00416756  106.75399780    0.07000000    0.01000000
   19.00749969  100.03299713    0.07000000    0.01000000
   19.01361084  100.03299713    0.07000000    0.01000000
   19.01777840  106.75800323    0.07000000    0.01000000
   19.02083397  100.11000061    0.07000000    0.01000000
   19.02416611   98.24559784    0.07000000    0.01000000
   19.02750015  100.98400116    0.07000000    0.01000000
   19.03055573  103.82900238    0.07000000    0.01000000
   19.03166580   95.92489624    0.07000000    0.01000000
   19.03444481   99.63369751    0.07000000    0.01000000
   19.03750038   97.05120087    0.07000000    0.01000000
   19.04083252  101.45200348    0.07000000    0.01000000
   19.04388809   99.83350372    0.07000000    0.01000000
   19.04722214   99.64739990    0.07000000    0.01000000
   19.05055428   94.80989838    0.07000000    0.01000000
   19.05638885   94.80989838    0.07000000    0.01000000
   19.06055450   98.58450317    0.07000000    0.01000000
   19.06388855  101.55899811    0.07000000    0.01000000
   19.06499863   99.90059662    0.07000000    0.01000000
   19.06750107   99.38459778    0.07000000    0.01000000
   19.07055664  102.67099762    0.07000000    0.01000000
   19.07389069  103.80999756    0.07000000    0.01000000
   19.07694626   95.69439697    0.07000000    0.01000000
   19.08027840   99.19719696    0.07000000    0.01000000
   19.08361244  107.01100159    0.07000000    0.01000000
   19.08666801  101.25099945    0.07000000    0.01000000
   19.09000015   97.91790009    0.07000000    0.01000000
   19.09333420   98.88600159    0.07000000    0.01000000
   19.09916687   98.88600159    0.07000000    0.01000000
   19.10333443  100.02100372    0.07000000    0.01000000
   19.10666656  106.37599945    0.07000000    0.01000000
   19.10972214   92.90879822    0.07000000    0.01000000
   19.11305618  100.67199707    0.07000000    0.01000000
   19.11638832  103.48200226    0.07000000    0.01000000
   19.11944389   99.04000092    0.07000000    0.01000000
   19.12277794   96.86370087    0.07000000    0.01000000
   19.12611198  103.85299683    0.07000000    0.01000000
   19.12916756  101.51899719    0.07000000    0.01000000
   19.13166618   97.89669800    0.07000000    0.01000000
   19.13305473  101.50700378    0.07000000    0.01000000
   19.13611031  102.89700317    0.07000000    0.01000000
   19.14249992  102.89700317    0.07000000    0.01000000
   19.14666748  101.58999634    0.07000000    0.01000000
   19.14972115   90.36920166    0.07000000    0.01000000
   19.15305519  102.04000092    0.07000000    0.01000000
   19.15611076  109.91799927    0.07000000    0.01000000
   19.15944481  102.30899811    0.07000000    0.01000000
   19.16277695   95.93419647    0.07000000    0.01000000
   19.16499901   95.63339996    0.07000000    0.01000000
   19.16638756   96.80549622    0.07000000    0.01000000
   19.16944313  103.38700104    0.07000000    0.01000000
   19.17277718  110.20300293    0.07000000    0.01000000
   19.17583275  107.12799835    0.07000000    0.01000000
   19.17916679  102.80999756    0.07000000    0.01000000
   19.18499947  102.80999756    0.07000000    0.01000000
   19.18916512  101.31900024    0.07000000    0.01000000
   19.19222069  107.50900269    0.07000000    0.01000000
   19.19555473   98.35019684    0.07000000    0.01000000
   19.19833183   97.34570313    0.07000000    0.01000000
   19.19916534  103.68900299    0.07000000    0.01000000
   19.20222282   99.79969788    0.07000000    0.01000000
   19.20555687  100.36699677    0.07000000    0.01000000
   19.20861244  102.28800201    0.07000000    0.01000000
   19.21194458   92.03949738    0.07000000    0.01000000
   19.21527863   99.64929962    0.07000000    0.01000000
   19.21833420   95.04679871    0.07000000    0.01000000
   19.22166634   95.92019653    0.07000000    0.01000000
   19.22777748   95.92019653    0.07000000    0.01000000
   19.23194504   96.94930267    0.07000000    0.01000000
   19.23527718  104.66799927    0.07000000    0.01000000
   19.23888969  104.52100372    0.07000000    0.01000000
   19.24277878  109.43399811    0.07000000    0.01000000
   19.24583435  100.98300171    0.07000000    0.01000000
   19.24916649  104.40899658    0.07000000    0.01000000
   19.25222206  102.32800293    0.07000000    0.01000000
   19.25555611  103.01799774    0.07000000    0.01000000
   19.25888824   99.32700348    0.07000000    0.01000000
   19.26194382  105.26699829    0.07000000    0.01000000
   19.26499939  104.27600098    0.07000000    0.01000000
   19.26583290  101.76999664    0.07000000    0.01000000
   19.27055550  101.76999664    0.07000000    0.01000000
   19.27472115  102.07199860    0.07000000    0.01000000
   19.27805519  103.67900085    0.07000000    0.01000000
   19.28138924  102.71900177    0.07000000    0.01000000
   19.28444481  103.74099731    0.07000000    0.01000000
   19.28777695  105.99900055    0.07000000    0.01000000
   19.29083252   97.65670013    0.07000000    0.01000000
   19.29416656  106.85600281    0.07000000    0.01000000
   19.29749870  102.10199738    0.07000000    0.01000000
   19.29833221   95.05950165    0.07000000    0.01000000
   19.30111122   99.39489746    0.07000000    0.01000000
   19.30416679  105.05500031    0.07000000    0.01000000
   19.30749893  106.87000275    0.07000000    0.01000000
   19.31361008  106.87000275    0.07000000    0.01000000
