    HOUR (UT)   FLARE FACTOR    SKY TESTER    SUN TESTER
   11.67416668   -1.00000000   -1.00000000   -1.00000000
   11.74666691  333.80899048    4.90999985    2.25000000
   11.74972248  233.03100586    4.90999985    2.03999996
   11.75305557  299.87799072    4.90999985    1.94000006
   11.75611115  251.03199768    4.90999985    1.96000004
   11.75944424  305.16598511    4.90999985    1.96000004
   11.76277733  279.77801514    4.90999985    1.96000004
   11.76694393  279.77801514    4.90999985    1.94000006
   11.77083302  298.37600708    4.90999985    2.03999996
   11.77416611  262.12200928    4.90999985    2.19000006
   11.77750015  259.42498779    4.90999985    2.30999994
   11.77972221  206.42999268    4.90999985    2.39000010
   11.78111076  196.63200378    4.90999985    2.42000008
   11.78416729  177.26100159    4.90999985    2.57999992
   11.78750038  178.41600037    4.90999985    2.61999989
   11.79083347  174.05400085    4.90999985    2.59999990
   11.79388905  163.92599487    4.90999985    2.59999990
   11.79722309  166.13999939    4.90999985    2.57999992
   11.80055618  180.54699707    4.90999985    2.55999994
   11.80361176  171.39999390    4.90999985    2.55999994
   11.80972195  171.39999390    4.90999985    2.55999994
   11.81388950  167.03900146    4.90999985    2.55999994
   11.81694412  167.79200745    4.90999985    2.55999994
   11.82027817  159.93699646    4.90999985    2.55999994
   11.82333374  180.77000427    4.90999985    2.53999996
   11.82666683  162.59800720    4.90999985    2.55999994
   11.82999992  177.03599548    4.90999985    2.55999994
   11.83305550  172.69099426    4.90999985    2.55999994
   11.83638859  158.56300354    4.90999985    2.55999994
   11.83972168  163.03900146    4.90999985    2.55999994
   11.84277725  164.56199646    4.90999985    2.55999994
   11.84611034  170.79400635    4.90999985    2.55999994
   11.84666634  166.05999756    4.90999985    2.55999994
   11.85249996  166.05999756    4.90999985    2.55999994
   11.85666752  166.06500244    4.90999985    2.55999994
   11.86000061  163.97000122    4.90999985    2.55999994
   11.86305618  158.59500122    4.90999985    2.55999994
   11.86638927  153.92199707    4.90999985    2.55999994
   11.86944485  153.63400269    4.90999985    2.57999992
   11.87277794  158.02000427    4.90999985    2.55999994
   11.87611103  171.21899414    4.90999985    2.57999992
   11.87916660  151.41700745    4.90999985    2.57999992
   11.88000011  158.38699341    4.90999985    2.55999994
   11.88305569  157.96000671    4.90999985    2.57999992
   11.88611126  151.13800049    4.90999985    2.57999992
   11.88944435  149.73599243    4.90999985    2.59999990
   11.89527798  149.73599243    4.90999985    2.57999992
   11.89944458  143.00399780    4.90999985    2.55999994
   11.90277767  150.99800110    4.90999985    2.57999992
   11.90583324  149.99899292    4.90999985    2.57999992
   11.90916634  148.93899536    4.90999985    2.57999992
   11.91249943  153.03799438    4.90999985    2.59999990
   11.91333294  152.42799377    4.90999985    2.57999992
   11.91611099  151.37800598    4.90999985    2.57999992
   11.91916656  153.51600647    4.90999985    2.57999992
   11.92250061  148.20599365    4.90999985    2.57999992
   11.92555618  163.60099792    4.90999985    2.57999992
   11.92888927  145.93899536    4.90999985    2.57999992
   11.93222237  147.82499695    4.90999985    2.59999990
   11.93833351  147.82499695    4.90999985    2.57999992
   11.94222260  144.22200012    4.90999985    2.57999992
   11.94555569  147.23100281    4.90999985    2.59999990
   11.94666672  145.83999634    4.90999985    2.57999992
   11.94916630  157.37899780    4.90999985    2.59999990
   11.95249939  147.98199463    4.90999985    2.59999990
   11.95583344  154.53999329    4.90999985    2.59999990
   11.95888901  160.75199890    4.90999985    2.59999990
   11.96222210  150.80999756    4.90999985    2.59999990
   11.96555519  150.68800354    4.90999985    2.59999990
   11.96861076  155.85600281    4.90999985    2.59999990
   11.97194386  148.44900513    4.90999985    2.59999990
   11.97499943  145.38499451    4.90999985    2.59999990
   11.98111057  145.38499451    4.90999985    2.59999990
   11.98527813  146.52400208    4.90999985    2.59999990
   11.98833370  148.98399353    4.90999985    2.61999989
   11.99166679  148.64500427    4.90999985    2.61999989
   11.99472237  139.82299805    4.90999985    2.59999990
   11.99805546  165.36700439    4.90999985    2.61999989
   12.00138855  142.48699951    4.90999985    2.59999990
   12.00444412  150.86700439    4.90999985    2.59999990
   12.00777817  157.07099915    4.90999985    2.59999990
   12.01111126  150.06700134    4.90999985    2.59999990
   12.01333332  134.10699463    4.90999985    2.61999989
   12.01444435  142.23800659    4.90999985    2.61999989
   12.01777744  146.64700317    4.90999985    2.59999990
   12.02388859  146.64700317    4.90999985    2.61999989
   12.02805519  145.56500244    4.90999985    2.61999989
   12.03111076  146.80099487    4.90999985    2.61999989
   12.03444481  135.99800110    4.90999985    2.61999989
   12.03777790  140.13299561    4.90999985    2.61999989
   12.04083347  145.73500061    4.90999985    2.61999989
   12.04416752  145.32800293    4.90999985    2.61999989
   12.04666710  133.36999512    4.90999985    2.61999989
   12.04777813  143.46200562    4.90999985    2.61999989
   12.05111122  141.75300598    4.90999985    2.61999989
   12.05444431  139.19099426    4.90999985    2.64000010
   12.05749989  139.33000183    4.90999985    2.64000010
   12.06083393  144.24899292    4.90999985    2.64000010
   12.06666660  144.24899292    4.90999985    2.64000010
   12.07083321  150.42999268    4.90999985    2.61999989
   12.07416630  143.28999329    4.90999985    2.61999989
   12.07722187  134.96800232    4.90999985    2.61999989
   12.07999992  144.83900452    4.90999985    2.64000010
   12.08083344  140.59899902    4.90999985    2.64000010
   12.08416653  144.59399414    4.90999985    2.64000010
   12.08749962  144.40699768    4.90999985    2.64000010
   12.09055519  135.47200012    4.90999985    2.64000010
   12.09388828  148.91400146    4.90999985    2.64000010
   12.09722233  137.47799683    4.90999985    2.64000010
   12.10027790  132.74600220    4.90999985    2.64000010
   12.10361195  142.54299927    4.90999985    2.64000010
   12.10944462  142.54299927    4.90999985    2.64000010
   12.11361122  148.57299805    4.90999985    2.66000009
   12.11694431  137.99499512    4.90999985    2.64000010
   12.12027836  140.40899658    4.90999985    2.64000010
   12.12333393  144.38099670    4.90999985    2.64000010
   12.12666702  134.09700012    4.90999985    2.64000010
   12.12972260  132.08399963    4.90999985    2.64000010
   12.13305569  137.40899658    4.90999985    2.67000008
   12.13638878  159.46899414    4.90999985    2.66000009
   12.13944435  152.50900269    4.90999985    2.51999998
   12.14277744  153.16600037    4.90999985    2.51999998
   12.14611053  147.87399292    4.90999985    2.51999998
   12.14666653  153.02600098    4.90999985    2.51999998
   12.15249920  153.02600098    4.90999985    2.59999990
   12.15666676  149.47900391    4.90999985    2.57999992
   12.15972137  128.99099731    4.90999985    2.66000009
   12.16305542  130.72700500    4.90999985    2.67000008
   12.16638851  130.34700012    4.90999985    2.66000009
   12.16944504  128.00900269    4.90999985    2.66000009
   12.17277813  138.01600647    4.90999985    2.66000009
   12.17583370  144.14300537    4.90999985    2.66000009
   12.17916679  141.77699280    4.90999985    2.66000009
   12.18000031  134.57000732    4.90999985    2.66000009
   12.18305588  131.21200562    4.90999985    2.66000009
   12.18611145  135.58399963    4.90999985    2.66000009
   12.18944454  134.03599548    4.90999985    2.66000009
   12.19527817  134.03599548    4.90999985    2.66000009
   12.19944477  137.27799988    4.90999985    2.67000008
   12.20249939  132.64599609    4.90999985    2.67000008
   12.20583344  136.19299316    4.90999985    2.67000008
   12.20916653  135.85299683    4.90999985    2.66000009
   12.21222210  126.87899780    4.90999985    2.69000006
   12.21333313  135.91200256    4.90999985    2.69000006
   12.21611118  130.86700439    4.90999985    2.69000006
   12.21916580  145.68299866    4.90999985    2.64000010
   12.22249985  148.44000244    4.90999985    2.53999996
   12.22555542  167.13600159    4.90999985    2.48000002
   12.22888851  169.35499573    4.90999985    2.40000010
   12.23222160  165.23800659    4.90999985    2.42000008
   12.23805618  165.23800659    4.90999985    2.46000004
   12.24222279  160.84500122    4.90999985    2.53999996
   12.24555588  146.70700073    4.90999985    2.46000004
   12.24666691  150.06500244    4.90999985    2.51999998
   12.24916649  144.89900208    4.90999985    2.55999994
   12.25222206  131.62899780    4.90999985    2.71000004
   12.25555515  144.19299316    4.90999985    2.71000004
   12.25861073  139.46299744    4.90999985    2.69000006
   12.26194477  146.55299377    4.90999985    2.69000006
   12.26527786  142.01499939    4.90999985    2.57999992
   12.26833344  161.15499878    4.90999985    2.48000002
   12.27166653  158.25399780    4.90999985    2.50000000
   12.27499962  162.08200073    4.90999985    2.57999992
   12.28083324  162.08200073    4.90999985    2.42000008
   12.28500080  207.67799377    4.90999985    2.50000000
   12.28833389  151.62699890    4.90999985    2.34999990
   12.29166698  175.13900757    4.90999985    2.48000002
   12.29472256  148.06100464    4.90999985    2.48000002
   12.29805565  149.60699463    4.90999985    2.55999994
   12.30111122  145.13099670    4.90999985    2.55999994
   12.30444431  154.23300171    4.90999985    2.50000000
   12.30777836  138.89799500    4.90999985    2.55999994
   12.31083393  133.97500610    4.90999985    2.67000008
   12.31333351  131.93499756    4.90999985    2.67000008
   12.31472206  137.83900452    4.90999985    2.67000008
   12.31777763  132.74699402    4.90999985    2.66000009
   12.32388878  132.74699402    4.90999985    2.61999989
   12.32777786  145.91600037    4.90999985    2.69000006
   12.33111095  130.39399719    4.90999985    2.71000004
   12.33444405  141.51699829    4.90999985    2.69000006
   12.33749962  126.97100067    4.90999985    2.69000006
   12.34083271  126.99700165    4.90999985    2.69000006
   12.34416676  134.25000000    4.90999985    2.69000006
   12.34666634  131.60200500    4.90999985    2.69000006
   12.34777737  133.25700378    4.90999985    2.69000006
   12.35083389  139.02200317    4.90999985    2.69000006
   12.35416698  135.08700562    4.90999985    2.69000006
   12.35722256  139.11599731    4.90999985    2.69000006
   12.36055565  140.62600708    4.90999985    2.69000006
   12.36666679  140.62600708    4.90999985    2.71000004
   12.37083340  127.50599670    4.90999985    2.69000006
   12.37388897  128.95100403    4.90999985    2.69000006
   12.37722206  131.68800354    4.90999985    2.71000004
   12.38000011  139.38600159    4.90999985    2.69000006
   12.38111115  124.68599701    4.90999985    2.69000006
   12.38416672  123.80899811    4.90999985    2.69000006
   12.38749981  126.10299683    4.90999985    2.71000004
   12.39055538  141.32400513    4.90999985    2.69000006
   12.39388847  133.60099792    4.90999985    2.69000006
   12.39722252  144.88400269    4.90999985    2.71000004
   12.40027714  138.45300293    4.90999985    2.71000004
   12.40361118  138.22300720    4.90999985    2.71000004
   12.40944386  138.22300720    4.90999985    2.71000004
   12.41361046  132.19500732    4.90999985    2.71000004
   12.41694450  137.48199463    4.90999985    2.71000004
   12.42000008  126.24900055    4.90999985    2.69000006
   12.42333412  132.55200195    4.90999985    2.71000004
   12.42638874  131.24600220    4.90999985    2.69000006
   12.42972279  132.86500549    4.90999985    2.69000006
   12.43305588  123.63099670    4.90999985    2.71000004
   12.43611145  131.44799805    4.90999985    2.71000004
   12.43944454  130.27999878    4.90999985    2.71000004
   12.44277763  126.80100250    4.90999985    2.71000004
   12.44583321  125.10900116    4.90999985    2.71000004
   12.44666672  116.51000214    4.90999985    2.71000004
   12.45222187  116.51000214    4.90999985    2.71000004
   12.45638847  121.63200378    4.90999985    2.71000004
   12.45972157  122.14199829    4.90999985    2.71000004
   12.46277714  123.10299683    4.90999985    2.71000004
   12.46611118  123.82700348    4.90999985    2.73000002
   12.46944427  124.73200226    4.90999985    2.71000004
   12.47249985  129.48399353    4.90999985    2.73000002
   12.47583294  126.22499847    4.90999985    2.71000004
   12.47916603  119.55300140    4.90999985    2.71000004
   12.47999954  115.41000366    4.90999985    2.71000004
   12.48277760  115.63500214    4.90999985    2.71000004
   12.48583317  119.86699677    4.90999985    2.71000004
   12.48916721  124.58200073    4.90999985    2.73000002
   12.49527836  124.58200073    4.90999985    2.71000004
   12.49916649  123.17500305    4.90999985    2.73000002
   12.50249958  126.38400269    4.90999985    2.73000002
   12.50583363  133.91900635    4.90999985    2.73000002
   12.50888920  122.28700256    4.90999985    2.71000004
   12.51222229  128.00700378    4.90999985    2.73000002
   12.51333332  121.46700287    4.90999985    2.71000004
   12.51611137  127.70999908    4.90999985    2.71000004
   12.51916599  125.82099915    4.90999985    2.73000002
   12.52250004  138.13999939    4.90999985    2.71000004
   12.52583313  132.21499634    4.90999985    2.75000000
   12.52888870  166.41000366    4.90999985    2.73000002
   12.53222179  127.38700104    4.90999985    2.71000004
   12.53805637  127.38700104    4.90999985    2.73000002
   12.54222298  124.18000031    4.90999985    2.73000002
   12.54527855  137.78700256    4.90999985    2.75000000
   12.54666710  126.99500275    4.90999985    2.73000002
   12.54916668  128.73500061    4.90999985    2.73000002
   12.55222225  117.24199677    4.90999985    2.73000002
   12.55555534  124.66500092    4.90999985    2.73000002
   12.55888939  125.21499634    4.90999985    2.73000002
   12.56194496  122.01899719    4.90999985    2.73000002
   12.56527805  117.36399841    4.90999985    2.73000002
   12.56833363  116.52799988    4.90999985    2.75000000
   12.57166672  120.56800079    4.90999985    2.73000002
   12.57499981  129.13999939    4.90999985    2.75000000
   12.58083344  129.13999939    4.90999985    2.75000000
   12.58500004  115.68499756    4.90999985    2.73000002
   12.58833313  120.61499786    4.90999985    2.75000000
   12.59138870  126.39800262    4.90999985    2.75000000
   12.59472179  120.38800049    4.90999985    2.75000000
   12.59805489  119.91500092    4.90999985    2.73000002
   12.60111141  120.84100342    4.90999985    2.73000002
   12.60444450  119.76300049    4.90999985    2.75000000
   12.60777855  131.88900757    4.90999985    2.75000000
   12.61083412  117.71900177    4.90999985    2.75000000
   12.61333370  115.50399780    4.90999985    2.75000000
   12.61472225  122.67900085    4.90999985    2.75000000
   12.61777782  117.93499756    4.90999985    2.75000000
   12.62361145  117.93499756    4.90999985    2.75000000
   12.62777805  126.30100250    4.90999985    2.75000000
   12.63111115  125.03600311    4.90999985    2.75000000
   12.63416672  117.95400238    4.90999985    2.75000000
   12.63749981  115.32800293    4.90999985    2.75000000
   12.64083290  116.83100128    4.90999985    2.75000000
   12.64388847  117.27100372    4.90999985    2.75000000
   12.64666653  117.50299835    4.90999985    2.75000000
   12.64777756  128.37399292    4.90999985    2.73000002
   12.65083313  123.41300201    4.90999985    2.75000000
   12.65416622  116.94499969    4.90999985    2.75000000
   12.65749931  123.03399658    4.90999985    2.75000000
   12.66055489  117.34899902    4.90999985    2.76999998
   12.66666698  117.34899902    4.90999985    2.75000000
   12.67055607  125.21199799    4.90999985    2.75000000
   12.67388916  146.61000061    4.90999985    2.75000000
   12.67722225  136.52000427    4.90999985    2.75000000
   12.68000031  124.42600250    4.90999985    2.75000000
   12.68083382  132.58299255    4.90999985    2.75000000
   12.68388939  137.11599731    4.90999985    2.76999998
   12.68722248  131.49800110    4.90999985    2.75000000
   12.69055557  125.25000000    4.90999985    2.75000000
   12.69361115  133.91299438    4.90999985    2.75000000
   12.69694424  120.20200348    4.90999985    2.75000000
   12.70027733  119.08899689    4.90999985    2.75000000
   12.70333290  131.78100586    4.90999985    2.75000000
   12.70944405  131.78100586    4.90999985    2.76999998
   12.71361065  133.96299744    4.90999985    2.76999998
   12.71666622  125.36000061    4.90999985    2.76999998
   12.71999931  123.39299774    4.90999985    2.75000000
   12.72333336  129.53100586    4.90999985    2.76999998
   12.72638798  121.09100342    4.90999985    2.75000000
   12.72972202  119.05999756    4.90999985    2.75000000
   12.73277760  123.09799957    4.90999985    2.75000000
   12.73611164  118.24500275    4.90999985    2.75000000
   12.73944473  123.65200043    4.90999985    2.76999998
   12.74250031  118.61100006    4.90999985    2.76999998
   12.74583340  117.66999817    4.90999985    2.76999998
   12.74666691  120.55000305    4.90999985    2.78999996
   12.76749992  120.55000305    4.90999985    2.76999998
   12.77166653  120.54299927    4.90999985    2.76999998
   12.77472210  121.97399902    4.90999985    2.76999998
   12.77805519  124.62300110    4.90999985    2.76999998
   12.77999973  122.72899628    4.90999985    2.76999998
   12.78166676  123.50399780    4.90999985    2.78999996
   12.78472233  121.82399750    4.90999985    2.76999998
   12.78805637  117.92400360    4.90999985    2.78999996
   12.79138947  124.05899811    4.90999985    2.76999998
   12.79444504  119.15499878    4.90999985    2.76999998
   12.79777813  123.88400269    4.90999985    2.76999998
   12.80111122  125.75599670    4.90999985    2.76999998
   12.80416679  132.97200012    4.90999985    2.76999998
   12.81027794  132.97200012    4.90999985    2.76999998
   12.81444454  136.45599365    4.90999985    2.78999996
   12.81750011  121.17099762    4.90999985    2.76999998
   12.82083321  127.40799713    4.90999985    2.78999996
   12.82388878  149.32499695    4.90999985    2.78999996
   12.82722187  184.14700317    4.90999985    2.76999998
   12.83055592  157.36700439    4.90999985    2.76999998
   12.83361053  148.20599365    4.90999985    2.78999996
   12.83694458  127.60800171    4.90999985    2.78999996
   12.84027767  161.15899658    4.90999985    2.78999996
   12.84333324  144.16900635    4.90999985    2.76999998
   12.84666634  159.16299438    4.90999985    2.78999996
   12.84722233  141.09800720    4.90999985    2.78999996
   12.85305595  141.09800720    4.90999985    2.78999996
   12.85722256  115.55899811    4.90999985    2.78999996
   12.86027813  126.04299927    4.90999985    2.78999996
   12.86361122  135.37600708    4.90999985    2.78999996
   12.86694431  122.10600281    4.90999985    2.78999996
   12.86999989  125.00499725    4.90999985    2.76999998
   12.87333393  120.86100006    4.90999985    2.78999996
   12.87666702  125.93599701    4.90999985    2.78999996
   12.87972260  120.01499939    4.90999985    2.76999998
   12.88055611  120.43099976    4.90999985    2.78999996
   12.88333321  124.19400024    4.90999985    2.78999996
   12.88666630  133.66499329    4.90999985    2.76999998
   12.89000034  135.31500244    4.90999985    2.78999996
   12.89583302  135.31500244    4.90999985    2.76999998
   12.89999962  122.53199768    4.90999985    2.78999996
   12.90333271  124.00900269    4.90999985    2.76999998
   12.90638828  128.33200073    4.90999985    2.78999996
   12.90972137  130.44000244    4.90999985    2.78999996
   12.91277695  120.51399994    4.90999985    2.78999996
   12.91388893  116.79100037    4.90999985    2.78999996
   12.91638851  122.50499725    4.90999985    2.78999996
   12.91972256  127.56900024    4.90999985    2.78999996
   12.92305565  130.62800598    4.90999985    2.78999996
   12.92611122  121.89299774    4.90999985    2.78999996
   12.92944431  120.26100159    4.90999985    2.78999996
   12.93277836  123.09300232    4.90999985    2.78999996
   12.93861103  123.09300232    4.90999985    2.76999998
   12.94277763  117.58399963    4.90999985    2.75000000
   12.94611073  127.75700378    4.90999985    2.76999998
   12.94722271  119.50399780    4.90999985    2.75000000
   12.94944477  125.27200317    4.90999985    2.73000002
   12.95277786  133.16600037    4.90999985    2.73000002
   12.95611095  130.14900208    4.90999985    2.71000004
   12.95916653  130.27999878    4.90999985    2.67000008
   12.96249962  135.20899963    4.90999985    2.67000008
   12.96583271  147.06300354    4.90999985    2.59999990
   12.96888828  130.91400146    4.90999985    2.57999992
   12.97222137  130.05799866    4.90999985    2.66000009
   12.97527695  132.47599792    4.90999985    2.67000008
   12.98166656  132.47599792    4.90999985    2.71000004
   12.98555565  156.55499268    4.90999985    2.64000010
   12.98888874  150.23699951    4.90999985    2.59999990
   12.99222279  159.15899658    4.90999985    2.46000004
   12.99527836  150.50799561    4.90999985    2.55999994
   12.99861145  152.64700317    4.90999985    2.53999996
   13.00194454  141.22599792    4.90999985    2.67000008
   13.00500011  153.67700195    4.90999985    2.53999996
   13.00833321  172.65299988    4.90999985    2.48000002
   13.01138878  167.83200073    4.90999985    2.55999994
   13.01388931  170.21200562    4.90999985    2.48000002
   13.01500034  152.18499756    4.90999985    2.48000002
   13.01833344  145.70599365    4.90999985    2.66000009
   13.02444458  145.70599365    4.90999985    2.55999994
   13.02861118  161.40699768    4.90999985    2.55999994
   13.03166676  137.84300232    4.90999985    2.61999989
   13.03500080  141.07200623    4.90999985    2.57999992
   13.03833389  150.48399353    4.90999985    2.59999990
   13.04138947  145.45100403    4.90999985    2.59999990
   13.04472256  143.89399719    4.90999985    2.64000010
   13.04722309  171.74000549    4.90999985    2.64000010
   13.04805565  151.40899658    4.90999985    2.61999989
   13.05138874  155.12199402    4.90999985    2.57999992
   13.05472279  138.83000183    4.90999985    2.57999992
   13.05777836  147.24499512    4.90999985    2.61999989
   13.06111145  144.72700500    4.90999985    2.67000008
   13.06722260  144.72700500    4.90999985    2.61999989
   13.07138920  146.18800354    4.90999985    2.64000010
   13.07472229  143.25500488    4.90999985    2.64000010
   13.07777786  144.87199402    4.90999985    2.67000008
   13.08055592  133.68499756    4.90999985    2.69000006
   13.08138847  132.53900146    4.90999985    2.69000006
   13.08472157  129.25399780    4.90999985    2.66000009
   13.08805561  124.06099701    4.90999985    2.66000009
   13.09111118  134.46800232    4.90999985    2.73000002
   13.09444427  123.17299652    4.90999985    2.71000004
   13.09777737  134.89799500    4.90999985    2.75000000
   13.10083389  128.42599487    4.90999985    2.75000000
   13.10416698  133.52499390    4.90999985    2.75000000
   13.11000061  133.52499390    4.90999985    2.73000002
   13.11416721  123.51899719    4.90999985    2.73000002
   13.11750031  127.07800293    4.90999985    2.76999998
   13.12055588  127.57099915    4.90999985    2.75000000
   13.12388897  126.22799683    4.90999985    2.76999998
   13.12722206  123.27100372    4.90999985    2.71000004
   13.13027763  130.88000488    4.90999985    2.75000000
   13.13361073  121.35399628    4.90999985    2.71000004
   13.13694477  122.82700348    4.90999985    2.76999998
   13.14000034  123.67500305    4.90999985    2.78999996
   13.14333344  121.44899750    4.90999985    2.73000002
   13.14638901  119.62899780    4.90999985    2.80999994
   13.14722252  122.91999817    4.90999985    2.80999994
   13.15305519  122.91999817    4.90999985    2.82999992
   13.15694427  126.85500336    4.90999985    2.80999994
   13.16027737  127.90299988    4.90999985    2.80999994
   13.16361046  117.74199677    4.90999985    2.82999992
   13.16666698  128.29200745    4.90999985    2.80999994
   13.17000008  117.90599823    4.90999985    2.78999996
   13.17333412  125.97200012    4.90999985    2.78999996
   13.17638874  122.70600128    4.90999985    2.76999998
   13.17972279  127.23200226    4.90999985    2.80999994
   13.18055630  127.92199707    4.90999985    2.78999996
   13.18333340  118.09700012    4.90999985    2.78999996
   13.18638897  127.24099731    4.90999985    2.76999998
   13.18972206  127.15799713    4.90999985    2.76999998
   13.19583321  127.15799713    4.90999985    2.78999996
   13.19999981  126.69499969    4.90999985    2.80999994
   13.20305538  123.42400360    4.90999985    2.80999994
   13.20638847  122.15799713    4.90999985    2.82999992
   13.20972157  125.99500275    4.90999985    2.82999992
   13.21277714  123.78399658    4.90999985    2.82999992
   13.21388912  122.45099640    4.90999985    2.82999992
   13.21666622  128.06300354    4.90999985    2.82999992
   13.21972179  124.41200256    4.90999985    2.82999992
   13.22305489  122.72399902    4.90999985    2.82999992
   13.22611046  124.57099915    4.90999985    2.82999992
   13.22944355  124.67800140    4.90999985    2.82999992
   13.23277760  117.48100281    4.90999985    2.82999992
   13.23861122  117.48100281    4.90999985    2.82999992
   13.24277782  121.89600372    4.90999985    2.82999992
   13.24611092  130.48899841    4.90999985    2.82999992
   13.24722290  126.57099915    4.90999985    2.82999992
   13.24972248  127.83300018    4.90999985    2.82999992
   13.25277805  118.25800323    4.90999985    2.82999992
   13.25611115  121.99400330    4.90999985    2.82999992
   13.25916672  117.27600098    4.90999985    2.82999992
   13.26249981  116.91000366    4.90999985    2.82999992
   13.26583290  125.64600372    4.90999985    2.82999992
   13.26916599  126.87100220    4.90999985    2.82999992
   13.27222157  120.26100159    4.90999985    2.82999992
   13.27555561  125.00399780    4.90999985    2.82999992
   13.28138828  125.00399780    4.90999985    2.82999992
   13.28555584  123.65499878    4.90999985    2.82999992
   13.28888893  120.61499786    4.90999985    2.82999992
   13.29194450  126.48000336    4.90999985    2.80999994
   13.29527855  120.91999817    4.90999985    2.82999992
   13.29861164  119.75800323    4.90999985    2.82999992
   13.30166721  123.14199829    4.90999985    2.82999992
   13.30500031  119.45500183    4.90999985    2.82999992
   13.30833340  128.72700500    4.90999985    2.84999990
   13.31138897  124.80999756    4.90999985    2.82999992
   13.31388950  126.30999756    4.90999985    2.84999990
   13.31527805  133.38400269    4.90999985    2.82999992
   13.31833363  128.15600586    4.90999985    2.82999992
   13.32444477  128.15600586    4.90999985    2.84999990
   13.32833290  125.59400177    4.90999985    2.82999992
   13.33166695  119.05599976    4.90999985    2.82999992
   13.33500004  120.69699860    4.90999985    2.84999990
   13.33805561  133.27400208    4.90999985    2.84999990
   13.34138870  136.78700256    4.90999985    2.82999992
   13.34472179  135.34300232    4.90999985    2.84999990
   13.34722233  135.59399414    4.90999985    2.84999990
   13.34833336  134.02900696    4.90999985    2.84999990
   13.35138893  135.83999634    4.90999985    2.84999990
   13.35472298  126.82399750    4.90999985    2.82999992
   13.35805607  124.92700195    4.90999985    2.82999992
   13.36111164  135.41999817    4.90999985    2.82999992
   13.36722279  135.41999817    4.90999985    2.82999992
   13.37138939  129.85899353    4.90999985    2.84999990
   13.37444496  130.91499329    4.90999985    2.82999992
   13.37777805  127.38099670    4.90999985    2.84999990
   13.38055611  132.41299438    4.90999985    2.84999990
   13.38138866  129.58500671    4.90999985    2.82999992
   13.38444424  125.51599884    4.90999985    2.82999992
   13.38777733  134.01499939    4.90999985    2.84999990
   13.39111137  131.71200562    4.90999985    2.84999990
   13.39416695  128.61300659    4.90999985    2.82999992
   13.39750004  126.53700256    4.90999985    2.84999990
   13.40055561  130.33399963    4.90999985    2.82999992
   13.40388870  125.53500366    4.90999985    2.84999990
   13.40999985  125.53500366    4.90999985    2.84999990
   13.41416645  129.50000000    4.90999985    2.84999990
   13.41750050  126.92800140    4.90999985    2.84999990
   13.42055607  121.23899841    4.90999985    2.82999992
   13.42388916  127.87100220    4.90999985    2.84999990
   13.42694473  136.92599487    4.90999985    2.86999989
   13.43027782  118.31700134    4.90999985    2.84999990
   13.43361092  127.70099640    4.90999985    2.84999990
   13.43666649  137.75300598    4.90999985    2.84999990
   13.44000053  137.36900330    4.90999985    2.84999990
   13.44305515  135.10699463    4.90999985    2.84999990
   13.44638920  139.92799377    4.90999985    2.84999990
   13.44722271  128.68099976    4.90999985    2.84999990
   13.45277786  128.68099976    4.90999985    2.84999990
   13.45694447  164.80000305    4.90999985    2.84999990
   13.46027756  146.86300659    4.90999985    2.84999990
   13.46333313  144.22599792    4.90999985    2.84999990
   13.46666622  161.62899780    4.90999985    2.84999990
   13.46999931  133.65400696    4.90999985    2.84999990
   13.47305489  136.98199463    4.90999985    2.84999990
   13.47638798  146.76400757    4.90999985    2.84999990
   13.47944355  139.73800659    4.90999985    2.84999990
   13.48055553  148.82600403    4.90999985    2.84999990
   13.48333359  140.44400024    4.90999985    2.86999989
   13.48638916  147.96099854    4.90999985    2.86999989
   13.48972225  137.04499817    4.90999985    2.84999990
   13.49555588  137.04499817    4.90999985    2.82999992
   13.49972248  130.88000488    4.90999985    2.84999990
   13.50305557  145.78199768    4.90999985    2.84999990
   13.50638866  133.25500488    4.90999985    2.84999990
   13.50944424  136.40899658    4.90999985    2.84999990
   13.51277733  137.25799561    4.90999985    2.84999990
   13.51388931  139.18699646    4.90999985    2.84999990
   13.51638889  140.65400696    4.90999985    2.86999989
   13.51944447  161.49800110    4.90999985    2.86999989
   13.52277756  160.70899963    4.90999985    2.84999990
   13.52583313  151.91600037    4.90999985    2.86999989
   13.52916622  140.92700195    4.90999985    2.82999992
   13.53249931  138.11799622    4.90999985    2.84999990
   13.53861141  138.11799622    4.90999985    2.84999990
   13.54277802  146.39199829    4.90999985    2.84999990
   13.54583359  131.75100708    4.90999985    2.84999990
   13.54722309  138.24600220    4.90999985    2.84999990
   13.54972267  143.21000671    4.90999985    2.84999990
   13.55277824  132.92799377    4.90999985    2.84999990
   13.55611134  137.95100403    4.90999985    2.86999989
   13.55944443  128.94400024    4.90999985    2.86999989
   13.56250000  136.07299805    4.90999985    2.86999989
   13.56583309  130.04299927    4.90999985    2.84999990
   13.56916618  134.14799500    4.90999985    2.84999990
   13.57222176  142.97300720    4.90999985    2.84999990
   13.57555580  137.13699341    4.90999985    2.84999990
   13.58138847  137.13699341    4.90999985    2.84999990
   13.58555508  141.66299438    4.90999985    2.82999992
   13.58861065  152.12399292    4.90999985    2.82999992
   13.59194374  150.36300659    4.90999985    2.78999996
   13.59527779  136.83500671    4.90999985    2.78999996
   13.59833336  168.02400208    4.90999985    2.80999994
   13.60166740  132.01199341    4.90999985    2.82999992
   13.60500050  144.29400635    4.90999985    2.76999998
   13.60805607  145.17399597    4.90999985    2.76999998
   13.61138916  149.99099731    4.90999985    2.82999992
   13.61388969  130.97399902    4.90999985    2.80999994
   13.61500072  140.60400391    4.90999985    2.80999994
   13.61805534  146.09199524    4.90999985    2.76999998
   13.62416649  146.09199524    4.90999985    2.75000000
   13.62833309  144.60400391    4.90999985    2.75000000
   13.63166714  168.69900513    4.90999985    2.80999994
   13.63472176  150.91799927    4.90999985    2.75000000
   13.63805580  189.92500305    4.90999985    2.64000010
   13.64138889  157.36599731    4.90999985    2.66000009
   13.64444447  173.66900635    4.90999985    2.67000008
   13.64722252  161.23899841    4.90999985    2.75000000
   13.64833355  181.49200439    4.90999985    2.73000002
   13.65138817  155.28500366    4.90999985    2.75000000
   13.65472221  166.91499329    4.90999985    2.71000004
   13.65805531  157.76600647    4.90999985    2.67000008
   13.66111088  156.73899841    4.90999985    2.69000006
   13.66694450  156.73899841    4.90999985    2.75000000
   13.67111111  142.95199585    4.90999985    2.67000008
   13.67444515  149.63299561    4.90999985    2.78999996
   13.67777824  129.44299316    4.90999985    2.69000006
   13.68055630  139.20700073    4.90999985    2.78999996
   13.68138885  151.51199341    4.90999985    2.76999998
   13.68444443  140.64599609    4.90999985    2.78999996
   13.68777752  148.11099243    4.90999985    2.75000000
   13.69111156  175.22700500    4.90999985    2.73000002
   13.69416714  140.06100464    4.90999985    2.59999990
   13.69750023  179.66200256    4.90999985    2.71000004
   13.70083332  157.25000000    4.90999985    2.66000009
   13.70388889  159.59300232    4.90999985    2.76999998
   13.71000004  159.59300232    4.90999985    2.64000010
   13.71416664  143.33399963    4.90999985    2.73000002
   13.71722221  158.36500549    4.90999985    2.67000008
   13.72055531  164.28100586    4.90999985    2.64000010
   13.72361088  163.74800110    4.90999985    2.61999989
   13.72694397  170.60099792    4.90999985    2.69000006
   13.73027706  194.60099792    4.90999985    2.44000006
   13.73333359  148.15899658    4.90999985    2.61999989
   13.73666668  145.53599548    4.90999985    2.71000004
   13.74000072  157.07600403    4.90999985    2.73000002
   13.74305534  181.48300171    4.90999985    2.48000002
   13.74638939  167.80599976    4.90999985    2.67000008
   13.74722290  129.92599487    4.90999985    2.69000006
   13.75277805  129.92599487    4.90999985    2.55999994
   13.75694466  165.28100586    4.90999985    2.53999996
   13.76000023  146.17300415    4.90999985    2.59999990
   13.76333332  160.97700500    4.90999985    2.55999994
   13.78083324  178.39799500    4.90999985    2.59999990
   13.78333378  241.25999451    4.90999985    2.59999990
   13.78666687  373.77301025    4.90999985    2.40000010
   13.78972244  360.01300049    4.90999985    2.23000002
   13.79583359  360.01300049    4.90999985    2.67000008
   13.80000019  141.12300110    4.90999985    2.75000000
   13.80305576  172.17100525    4.90999985    2.46000004
   13.80638885  238.47000122    4.90999985    2.59999990
   13.80972195  218.86799622    4.90999985    2.39000010
   13.81277752  252.07299805    4.90999985    2.44000006
   13.81416702  215.15899658    4.90999985    2.28999996
   13.81666660  174.98399353    4.90999985    2.48000002
   13.81972218  134.95100403    4.90999985    2.42000008
   13.82305527  159.22300720    4.90999985    2.64000010
   13.82638836  191.01300049    4.90999985    2.61999989
   13.82944393  310.35101318    4.90999985    2.51999998
   13.83277798  321.49099731    4.90999985    2.21000004
   13.83861065  321.49099731    4.90999985    2.25000000
   13.84277725  233.15800476    4.90999985    2.59999990
   13.84611034  229.69599915    4.90999985    2.48000002
   13.84749985  151.07099915    4.90999985    2.48000002
   13.84972191  189.15299988    4.90999985    2.73000002
   13.85277843   23.57019997    4.90999985    2.39000010
   13.85611153   -1.00000000    4.90999985    2.13000011
   13.85944462  268.90301514    4.90999985    1.75000000
   13.86250019  224.22300720    4.90999985    2.23000002
   13.86583328  257.83898926    4.90999985    2.50000000
   13.86916637  210.07099915    4.90999985    2.36999989
   13.87222195  354.84799194    4.90999985    2.64000010
   13.87555599  245.61199951    4.90999985    1.91999996
   13.88138866  245.61199951    4.90999985    1.96000004
   13.88555527  209.63999939    4.90999985    1.96000004
   13.88888836  335.27099609    4.90999985    2.34999990
   13.89194393  276.45300293    4.90999985    2.25000000
   13.89527798  268.11300659    4.90999985    2.55999994
   13.89861107  223.58000183    4.90999985    2.23000002
   13.90166664  245.58500671    4.90999985    2.64000010
   13.90499973  348.82000732    4.90999985    2.26999998
   13.90833282  217.89100647    4.90999985    2.25000000
   13.91138840  183.42700195    4.90999985    2.50000000
   13.91416645  226.09399414    4.90999985    2.57999992
   13.91499996  225.75599670    4.90999985    2.55999994
   13.91805553  220.12399292    4.90999985    2.48000002
   13.92444515  220.12399292    4.90999985    2.25000000
   13.92833328  206.91600037    4.90999985    2.34999990
   13.93166733  174.49299622    4.90999985    2.42000008
   13.93500042  202.10000610    4.90999985    2.39000010
   13.93805599  312.06600952    4.90999985    2.28999996
   13.94138908  262.66299438    4.90999985    2.13000011
   13.94444466  291.06100464    4.90999985    2.36999989
   13.94750023  296.64700317    4.90999985    2.23000002
   13.94833374  308.52099609    4.90999985    2.26999998
   13.95138836  305.59899902    4.90999985    2.13000011
   13.95472240  310.92098999    4.90999985    2.21000004
   13.95805550  197.54299927    4.90999985    2.25000000
   13.96111107  306.15798950    4.90999985    2.34999990
   13.96722221  306.15798950    4.90999985    2.05999994
   13.97138882  215.28399658    4.90999985    2.39000010
   13.97444439  215.89599609    4.90999985    2.53999996
   13.97777748  268.51800537    4.90999985    2.42000008
   13.98083305  116.16600037    4.90999985    2.32999992
   13.98138809   65.22509766    4.90999985    2.32999992
   13.98444462   -1.00000000    4.90999985    1.98000002
   13.98777771  312.68600464    4.90999985    1.96000004
   13.99111176  113.41300201    4.90999985    2.23000002
   13.99416733  188.49400330    4.90999985    2.30999994
   13.99750042  199.05499268    4.90999985    2.51999998
   14.00055599  175.04699707    4.90999985    2.42000008
   14.00388908  274.90100098    4.90999985    2.32999992
   14.01000023  274.90100098    4.90999985    2.28999996
   14.01416683  310.21499634    4.90999985    2.34999990
   14.01472187  212.77799988    4.90999985    2.34999990
   14.01777744  312.20199585    4.90999985    2.50000000
   14.02111053  218.90100098    4.90999985    2.42000008
   14.02444458  326.71200562    4.90999985    2.50000000
   14.02750015  185.16000366    4.90999985    2.46000004
   14.03083324  260.36999512    4.90999985    2.17000008
   14.03416729  328.42599487    4.90999985    2.32999992
   14.03722286  205.41099548    4.90999985    2.39000010
   14.04055595  316.03399658    4.90999985    2.46000004
   14.04361153  196.97799683    4.90999985    2.26999998
   14.04694462  137.12500000    4.90999985    2.71000004
   14.04750061  124.88400269    4.90999985    2.71000004
   14.05277824  124.88400269    4.90999985    2.39000010
   14.05694485  217.71499634    4.90999985    2.40000010
   14.06027794  266.75500488    4.90999985    2.26999998
   14.06333351  188.51600647    4.90999985    2.42000008
   14.06666660  200.83500671    4.90999985    2.71000004
   14.06999969  187.95799255    4.90999985    2.67000008
   14.07305527  288.97698975    4.90999985    2.32999992
   14.07638836  207.19900513    4.90999985    2.66000009
   14.07944393  222.36000061    4.90999985    2.46000004
   14.08083344  246.85200500    4.90999985    2.48000002
   14.08333302  164.46600342    4.90999985    2.44000006
   14.08638859  182.83599854    4.90999985    2.91000009
   14.08972168  215.68099976    4.90999985    2.21000004
   14.09555531  215.68099976    4.90999985    2.07999992
   14.09972191  191.01899719    4.90999985    2.44000006
   14.10305595  171.72300720    4.90999985    2.46000004
   14.10638905  191.78900146    4.90999985    2.59999990
   14.10944462  148.42999268    4.90999985    2.53999996
   14.11277771  154.15100098    4.90999985    2.61999989
   14.11416721  178.56900024    4.90999985    2.69000006
   14.11638927  186.05499268    4.90999985    2.53999996
   14.11944485  117.92800140    4.90999985    2.48000002
   14.12277794  310.61999512    4.90999985    1.98000002
   14.12611103  215.08099365    4.90999985    2.34999990
   14.12916660  216.41600037    4.90999985    2.42000008
   14.13249969  166.55499268    4.90999985    2.51999998
   14.13861084  166.55499268    4.90999985    2.55999994
   14.14277744  193.49400330    4.90999985    2.51999998
   14.14583302  204.64300537    4.90999985    2.42000008
   14.14750004  226.31300354    4.90999985    2.39000010
   14.14944458  171.11799622    4.90999985    2.44000006
   14.15249920  192.90499878    4.90999985    2.57999992
   14.15583324  159.85299683    4.90999985    2.69000006
   14.15916634  156.74400330    4.90999985    2.64000010
   14.16222191  200.22999573    4.90999985    2.57999992
   14.16555500  220.17399597    4.90999985    2.32999992
   14.16888905  247.61399841    4.90999985    2.50000000
   14.17194462  209.49899292    4.90999985    2.39000010
   14.17527771  207.42500305    4.90999985    2.36999989
   14.18138885  207.42500305    4.90999985    2.51999998
   14.18555546  227.75300598    4.90999985    2.61999989
   14.18861103  163.17799377    4.90999985    2.34999990
   14.19194412  185.07699585    4.90999985    2.50000000
   14.19527817  139.38200378    4.90999985    2.46000004
   14.19833374  157.54800415    4.90999985    2.64000010
   14.20166683  167.51800537    4.90999985    2.71000004
   14.20499992  179.30900574    4.90999985    2.53999996
   14.20805550  229.97099304    4.90999985    2.51999998
   14.21138859  169.98399353    4.90999985    2.50000000
   14.21416664  175.22900391    4.90999985    2.53999996
   14.21500015  172.48399353    4.90999985    2.53999996
   14.21805477  152.74899292    4.90999985    2.59999990
   14.22416592  152.74899292    4.90999985    2.73000002
   14.22833252  165.39300537    4.90999985    2.53999996
   14.23166656  168.30799866    4.90999985    2.64000010
   14.23472214  175.38600159    4.90999985    2.55999994
   14.23805618  142.05400085    4.90999985    2.61999989
   14.24138927  158.95500183    4.90999985    2.66000009
   14.24444485  225.24499512    4.90999985    2.64000010
   14.24750042  274.88101196    4.90999985    2.46000004
   14.24805546  235.07099915    4.90999985    2.46000004
   14.25111103  226.76300049    4.90999985    2.40000010
   14.25444412  279.25299072    4.90999985    2.42000008
   14.25777817  302.13800049    4.90999985    2.39000010
   14.26083374  288.50601196    4.90999985    2.36999989
   14.26722240  288.50601196    4.90999985    2.67000008
   14.27111053  179.16799927    4.90999985    2.61999989
   14.27444458  150.25999451    4.90999985    2.51999998
   14.27777767  173.05400085    4.90999985    2.69000006
   14.28083324  185.69099426    4.90999985    2.57999992
   14.28138828  182.74299622    4.90999985    2.55999994
   14.28444481  188.86099243    4.90999985    2.61999989
   14.28777790  185.17399597    4.90999985    2.61999989
   14.29111195  234.78100586    4.90999985    2.46000004
   14.29416752  182.72900391    4.90999985    2.39000010
   14.29750061  179.03300476    4.90999985    2.59999990
   14.30083370  138.08999634    4.90999985    2.67000008
   14.30388927  166.70899963    4.90999985    2.75000000
   14.31000042  166.70899963    4.90999985    2.66000009
   14.31416702  152.78999329    4.90999985    2.61999989
   14.31444454  189.99200439    4.90999985    2.61999989
   14.31777763  200.55499268    4.90999985    2.50000000
   14.32111073  154.94700623    4.90999985    2.50000000
   14.32416630  196.63999939    4.90999985    2.73000002
   14.32750034  144.75799561    4.90999985    2.67000008
   14.33083344  167.75799561    4.90999985    2.71000004
   14.33388901  138.51300049    4.90999985    2.71000004
   14.33722210  121.79499817    4.90999985    2.71000004
   14.34055519  150.78300476    4.90999985    2.84999990
   14.34361076  149.00000000    4.90999985    2.71000004
   14.34694386  148.83900452    4.90999985    2.69000006
   14.34805489  165.69500732    4.90999985    2.67000008
   14.35277843  165.69500732    4.90999985    2.78999996
   14.35694504  142.84399414    4.90999985    2.76999998
   14.36000061  162.49400330    4.90999985    2.75000000
   14.36333370  164.39599609    4.90999985    2.53999996
   14.36666679  145.57699585    4.90999985    2.71000004
   14.36999989  168.35699463    4.90999985    2.71000004
   14.37305546  180.16299438    4.90999985    2.66000009
   14.37638855  162.82699585    4.90999985    2.57999992
   14.37944412  177.66700745    4.90999985    2.61999989
   14.38138866  162.46400452    4.90999985    2.64000010
   14.38305569  169.33399963    4.90999985    2.59999990
   14.38638878  156.37600708    4.90999985    2.61999989
   14.38944435  132.11999512    4.90999985    2.69000006
   14.39555550  132.11999512    4.90999985    2.66000009
   14.39972210  161.13600159    4.90999985    2.67000008
   14.40305519  140.62399292    4.90999985    2.59999990
   14.40611076  152.21699524    4.90999985    2.75000000
   14.40944386  147.38800049    4.90999985    2.73000002
   14.41277695  153.13900757    4.90999985    2.69000006
   14.41472149  146.00500488    4.90999985    2.69000006
   14.41611099  164.10899353    4.90999985    2.66000009
   14.41944504  184.12500000    4.90999985    2.75000000
   14.42250061  157.92999268    4.90999985    2.80999994
   14.42583370  158.19000244    4.90999985    2.84999990
   14.42916679  242.63400269    4.90999985    2.66000009
   14.43222237  202.52499390    4.90999985    2.46000004
   14.43861103  202.52499390    4.90999985    2.66000009
   14.44250011  218.17999268    4.90999985    2.75000000
   14.44583321  166.85299683    4.90999985    2.57999992
   14.44805527  137.94000244    4.90999985    2.73000002
   14.44944477  161.95399475    4.90999985    2.75000000
   14.45277786  207.96899414    4.90999985    2.55999994
   14.45611095  222.45399475    4.90999985    2.66000009
   14.45916653  199.19000244    4.90999985    2.51999998
   14.46249962  145.10099792    4.90999985    2.69000006
   14.46555519  151.14199829    4.90999985    2.75000000
   14.46888828  156.11999512    4.90999985    2.73000002
   14.47222137  159.75599670    4.90999985    2.64000010
   14.47527695  136.49600220    4.90999985    2.76999998
   14.48138809  136.49600220    4.90999985    2.80999994
   14.48555565  130.13900757    4.90999985    2.86999989
   14.48861122  135.06700134    4.90999985    2.86999989
   14.49194431  132.51899719    4.90999985    2.86999989
   14.49499989  124.26200104    4.90999985    2.89000010
   14.49833393  130.14700317    4.90999985    2.91000009
   14.50166702  128.83000183    4.90999985    2.91000009
   14.50472260  126.42800140    4.90999985    2.91000009
   14.50805569  131.59599304    4.90999985    2.91000009
   14.51138878  126.88600159    4.90999985    2.93000007
   14.51444435  140.88000488    4.90999985    2.93000007
   14.51638889  134.44999695    4.90999985    2.91000009
   14.51833344  132.53100586    4.90999985    2.91000009
   14.52416611  132.53100586    4.90999985    2.82999992
   14.52833271  133.45300293    4.90999985    2.84999990
   14.53138828  161.69599915    4.90999985    2.89000010
   14.53472233  138.18699646    4.90999985    2.76999998
   14.53805637  144.22000122    4.90999985    2.80999994
   14.54111195  144.53399658    4.90999985    2.78999996
   14.54444504  145.70199585    4.90999985    2.73000002
   14.54777813  141.60000610    4.90999985    2.84999990
   14.54972267  131.33500671    4.90999985    2.91000009
   14.55138874  136.25799561    4.90999985    2.86999989
   14.55444431  140.60000610    4.90999985    2.78999996
   14.55777836  133.91600037    4.90999985    2.71000004
   14.56083393  143.62500000    4.90999985    2.66000009
   14.56694412  143.62500000    4.90999985    2.82999992
   14.57111073  142.77099609    4.90999985    2.80999994
   14.57444477  148.91900635    4.90999985    2.76999998
   14.57750034  152.37500000    4.90999985    2.78999996
   14.58083344  152.08500671    4.90999985    2.80999994
   14.58333302  144.52000427    4.90999985    2.76999998
   14.58444405  137.03199768    4.90999985    2.78999996
   14.58777714  149.74800110    4.90999985    2.82999992
   14.59083271  142.84500122    4.90999985    2.78999996
   14.59416676  136.63999939    4.90999985    2.76999998
   14.59749985  143.07000732    4.90999985    2.76999998
   14.60055637  123.49099731    4.90999985    2.82999992
   14.60388947  138.66000366    4.90999985    2.80999994
   14.60972214  138.66000366    4.90999985    2.75000000
   14.61388969  131.03599548    4.90999985    2.76999998
   14.61666679  140.13699341    4.90999985    2.80999994
   14.61750031  143.91799927    4.90999985    2.75000000
   14.62083340  140.43099976    4.90999985    2.78999996
   14.62416649  160.13400269    4.90999985    2.71000004
   14.62722206  153.38000488    4.90999985    2.71000004
   14.63055611  167.03799438    4.90999985    2.71000004
   14.63361073  140.03599548    4.90999985    2.80999994
   14.63694477  129.00500488    4.90999985    2.76999998
   14.64027786  134.83599854    4.90999985    2.84999990
   14.64333344  150.22799683    4.90999985    2.82999992
   14.64666653  134.57099915    4.90999985    2.82999992
   14.65277767  134.57099915    4.90999985    2.86999989
   14.65694427  128.97900391    4.90999985    2.93000007
   14.65999985  130.63000488    4.90999985    2.86999989
   14.66333294  129.03500366    4.90999985    2.91000009
   14.66638851  127.90899658    4.90999985    2.93000007
   14.66972256  120.54699707    4.90999985    2.91000009
   14.67305565  126.75800323    4.90999985    2.91000009
   14.67611122  129.05499268    4.90999985    2.93000007
   14.67944431  129.22300720    4.90999985    2.93000007
   14.68277836  127.22799683    4.90999985    2.93000007
   14.68361092  132.35600281    4.90999985    2.93000007
   14.68638897  130.80999756    4.90999985    2.91000009
   14.68944454  126.66200256    4.90999985    2.93000007
   14.69555569  126.66200256    4.90999985    2.93000007
   14.69972229  127.11399841    4.90999985    2.93000007
   14.70305538  122.77500153    4.90999985    2.94000006
   14.70611095  135.75399780    4.90999985    2.93000007
   14.70944405  130.02799988    4.90999985    2.93000007
   14.71249962  130.14599609    4.90999985    2.93000007
   14.71583271  135.98199463    4.90999985    2.93000007
   14.71694374  133.91200256    4.90999985    2.93000007
   14.71972179  137.64100647    4.90999985    2.94000006
   14.72277737  135.76300049    4.90999985    2.94000006
   14.72611046  130.90699768    4.90999985    2.93000007
   14.72916603  129.74200439    4.90999985    2.94000006
   14.73249912  139.28999329    4.90999985    2.93000007
   14.73833370  139.28999329    4.90999985    2.94000006
   14.74250031  131.29499817    4.90999985    2.93000007
   14.74583340  128.48699951    4.90999985    2.93000007
   14.74888897  126.24600220    4.90999985    2.93000007
   14.75055599  133.73199463    4.90999985    2.93000007
   14.75249958  126.35399628    4.90999985    2.94000006
   14.75583363  134.26899719    4.90999985    2.93000007
   14.75916672  117.31099701    4.90999985    2.93000007
   14.76222229  128.75100708    4.90999985    2.93000007
   14.76555538  123.40899658    4.90999985    2.94000006
   14.76861095  128.74400330    4.90999985    2.94000006
   14.77194405  124.47499847    4.90999985    2.93000007
   14.77527714  132.25999451    4.90999985    2.93000007
   14.78138828  132.25999451    4.90999985    2.93000007
   14.79972267  136.07400513    4.90999985    2.94000006
   14.80277824  127.86499786    4.90999985    2.94000006
   14.80611134  127.07199860    4.90999985    2.93000007
   14.80944443  123.86100006    4.90999985    2.93000007
   14.81250000  125.22699738    4.90999985    2.93000007
   14.81583309  128.58200073    4.90999985    2.93000007
   14.81916618  125.20700073    4.90999985    2.93000007
   14.82444477  125.20700073    4.90999985    2.94000006
   14.82861137  132.08399963    4.90999985    2.93000007
   14.83166695  132.16700745    4.90999985    2.94000006
   14.83277798  127.81500244    4.90999985    2.94000006
   14.83527756  130.10499573    4.90999985    2.94000006
   14.83861065  138.06399536    4.90999985    2.93000007
   14.84194374  131.31500244    4.90999985    2.96000004
   14.84499931  123.49099731    4.90999985    2.93000007
   14.84833336  129.25399780    4.90999985    2.93000007
   14.85166740  127.49199677    4.90999985    2.94000006
   14.85472298  128.27699280    4.90999985    2.94000006
   14.85805607  128.88999939    4.90999985    2.94000006
   14.86111164  127.61799622    4.90999985    2.94000006
   14.86722279  127.61799622    4.90999985    2.93000007
   14.87138939  130.40600586    4.90999985    2.94000006
   14.87444496  128.44000244    4.90999985    2.93000007
   14.87777805  128.71299744    4.90999985    2.94000006
   14.88111115  132.24800110    4.90999985    2.93000007
   14.88416672  125.32299805    4.90999985    2.93000007
   14.88749981  128.85099792    4.90999985    2.94000006
   14.89083290  131.26699829    4.90999985    2.94000006
   14.89388847  133.80299377    4.90999985    2.94000006
   14.89722252  128.94799805    4.90999985    2.94000006
   14.89944458  122.05799866    4.90999985    2.94000006
   14.90083313  128.89799500    4.90999985    2.91000009
   14.90416622  124.40699768    4.90999985    2.94000006
   14.90999985  124.40699768    4.90999985    2.94000006
   14.91416645  128.02099609    4.90999985    2.94000006
   14.91750050  128.61999512    4.90999985    2.94000006
   14.92055607  121.21199799    4.90999985    2.93000007
   14.92388916  126.35399628    4.90999985    2.94000006
   14.92722225  122.74199677    4.90999985    2.94000006
   14.93027782  125.74800110    4.90999985    2.94000006
   14.93277836  124.89099884    4.90999985    2.94000006
   14.93388939  129.05599976    4.90999985    2.94000006
   14.93722248  128.55099487    4.90999985    2.94000006
   14.94055557  125.30300140    4.90999985    2.93000007
   14.94361115  124.37799835    4.90999985    2.93000007
   14.94694424  123.55500031    4.90999985    2.94000006
   14.95277786  123.55500031    4.90999985    2.94000006
   14.95694447  124.64700317    4.90999985    2.94000006
   14.96027756  124.74500275    4.90999985    2.94000006
   14.96333313  130.24899292    4.90999985    2.93000007
   14.96611118  127.70400238    4.90999985    2.94000006
   14.96694374  130.83900452    4.90999985    2.94000006
   14.97027779  130.78500366    4.90999985    2.94000006
   14.97361088  124.77300262    4.90999985    2.94000006
   14.97666645  123.20899963    4.90999985    2.94000006
   14.97999954  122.87000275    4.90999985    2.94000006
   14.98333359  133.42599487    4.90999985    2.94000006
   14.98638916  122.68000031    4.90999985    2.94000006
   14.98972225  127.94599915    4.90999985    2.93000007
   14.99583340  127.94599915    4.90999985    2.94000006
   14.99972248  134.71800232    4.90999985    2.94000006
   15.00305557  125.55899811    4.90999985    2.93000007
   15.00638866  134.53199768    4.90999985    2.94000006
   15.00944424  131.89799500    4.90999985    2.94000006
   15.01277733  123.86000061    4.90999985    2.94000006
   15.01611137  125.36900330    4.90999985    2.94000006
   15.01916599  124.08300018    4.90999985    2.94000006
   15.02250004  125.17099762    4.90999985    2.94000006
   15.02583313  125.46199799    4.90999985    2.94000006
   15.02888870  130.44500732    4.90999985    2.94000006
   15.03222179  129.73199463    4.90999985    2.94000006
   15.03277779  119.86900330    4.90999985    2.94000006
   15.03861141  119.86900330    4.90999985    2.96000004
   15.04277802  127.59500122    4.90999985    2.94000006
   15.04583359  124.48899841    4.90999985    2.94000006
   15.04916668  130.03100586    4.90999985    2.94000006
   15.05249977  129.08700562    4.90999985    2.94000006
   15.05555534  125.80000305    4.90999985    2.94000006
   15.05888939  129.69000244    4.90999985    2.94000006
   15.06222248  126.72799683    4.90999985    2.94000006
   15.06527805  130.23599243    4.90999985    2.94000006
   15.06611156  126.83300018    4.90999985    2.94000006
   15.06888866  124.89399719    4.90999985    2.94000006
   15.07222176  120.54699707    4.90999985    2.93000007
   15.07555580  123.20899963    4.90999985    2.94000006
   15.08138847  123.20899963    4.90999985    2.94000006
   15.08555508  123.16100311    4.90999985    2.96000004
   15.08861065  125.72100067    4.90999985    2.94000006
   15.09194374  124.07700348    4.90999985    2.93000007
   15.09527779  121.60700226    4.90999985    2.94000006
   15.09833336  123.26899719    4.90999985    2.94000006
   15.09944439  126.11000061    4.90999985    2.93000007
   15.10194492  121.63099670    4.90999985    2.94000006
   15.10527802  130.73100281    4.90999985    2.94000006
   15.10833359  122.95400238    4.90999985    2.94000006
   15.11166668  126.08699799    4.90999985    2.94000006
   15.11500072  124.21399689    4.90999985    2.94000006
   15.11805534  125.46499634    4.90999985    2.94000006
   15.12416649  125.46499634    4.90999985    2.94000006
   15.12833309  115.91500092    4.90999985    2.94000006
   15.13166714  122.08999634    4.90999985    2.94000006
   15.13277817  127.33899689    4.90999985    2.94000006
   15.13500023  125.23300171    4.90999985    2.93000007
   15.13833332  123.96399689    4.90999985    2.93000007
   15.14166641  125.18800354    4.90999985    2.94000006
   15.24583340   -1.00000000   -1.00000000   -1.00000000
   15.47805500   -1.00000000   -1.00000000   -1.00000000
   15.61722279   -1.00000000   -1.00000000   -1.00000000
   16.03111076   80.71900177    4.90999985    2.76999998
   16.03444481  160.67399597    4.90999985    2.75000000
   16.03777695  149.25000000    4.90999985    2.73000002
   16.04111099  151.93200684    4.90999985    2.75000000
   16.04416656  162.30499268    4.90999985    2.75000000
   16.04749870  140.32400513    4.90999985    2.73000002
   16.05166626  140.32400513    4.90999985    2.75000000
   16.05583191  143.00599670    4.90999985    2.75000000
   16.05888748  145.62500000    4.90999985    2.76999998
   16.06222153  144.13999939    4.90999985    2.75000000
   16.06444359  139.36000061    4.90999985    2.75000000
   16.06583214  142.19900513    4.90999985    2.75000000
   16.06916809  143.89799500    4.90999985    2.75000000
   16.07222366  151.64199829    4.90999985    2.76999998
   16.07555580  144.81100464    4.90999985    2.75000000
   16.07888985  151.50399780    4.90999985    2.78999996
   16.08194542  149.33900452    4.90999985    2.78999996
   16.08527756  148.56599426    4.90999985    2.76999998
   16.08833313  144.87600708    4.90999985    2.75000000
   16.09444427  144.87600708    4.90999985    2.73000002
   16.09861183  150.08399963    4.90999985    2.75000000
   16.10166740  144.29600525    4.90999985    2.75000000
   16.10499954  153.69500732    4.90999985    2.78999996
   16.10833359  142.96200562    4.90999985    2.78999996
   16.11138916  140.12399292    4.90999985    2.78999996
   16.11472321  143.75300598    4.90999985    2.80999994
   16.11777878  147.53500366    4.90999985    2.78999996
   16.12111092  139.40199280    4.90999985    2.80999994
   16.12444496  129.49200439    4.90999985    2.82999992
   16.12750053  146.82600403    4.90999985    2.82999992
   16.13083267  138.94599915    4.90999985    2.86999989
   16.13138962  144.24899292    4.90999985    2.84999990
   16.13722229  144.24899292    4.90999985    2.84999990
   16.14138794  131.04400635    4.90999985    2.84999990
   16.14472198  139.13699341    4.90999985    2.91000009
   16.14777756  137.27499390    4.90999985    2.86999989
   16.15111160  126.92600250    4.90999985    2.91000009
   16.15416718  127.87500000    4.90999985    2.84999990
   16.15749931  137.99800110    4.90999985    2.89000010
   16.16083336  138.16400146    4.90999985    2.89000010
   16.16388893  141.50300598    4.90999985    2.89000010
   16.16472244  134.17199707    4.90999985    2.89000010
   16.16777802  136.43800354    4.90999985    2.91000009
   16.17083359  138.61199951    4.90999985    2.91000009
   16.17416573  140.01400757    4.90999985    2.93000007
   16.18000031  140.01400757    4.90999985    2.91000009
   16.18416595  134.21099854    4.90999985    2.91000009
   16.18750000  128.75100708    4.90999985    2.93000007
   16.19055557  123.95800018    4.90999985    2.93000007
   16.19388771  134.47300720    4.90999985    2.93000007
   16.19722176  129.83900452    4.90999985    2.93000007
   16.19805527  130.53500366    4.90999985    2.93000007
   16.20083427  130.24000549    4.90999985    2.93000007
   16.20388985  130.35299683    4.90999985    2.94000006
   16.20722389  138.16000366    4.90999985    2.94000006
   16.21055603  123.61199951    4.90999985    2.96000004
   16.21361160  121.84300232    4.90999985    2.96000004
   16.21694565  127.58100128    4.90999985    2.94000006
   16.22305679  127.58100128    4.90999985    2.94000006
   16.22694588  133.34399414    4.90999985    2.94000006
   16.23027802  135.44500732    4.90999985    2.94000006
   16.23139000  134.69200134    4.90999985    2.94000006
   16.23416710  130.07000732    4.90999985    2.96000004
   16.23722267  127.47399902    4.90999985    2.93000007
   16.24055672  120.70400238    4.90999985    2.93000007
   16.24361229  131.01899719    4.90999985    2.94000006
   16.24694443  133.77299500    4.90999985    2.91000009
   16.25027847  137.36399841    4.90999985    2.94000006
   16.25333405  128.05499268    4.90999985    2.93000007
   16.25666618  128.52200317    4.90999985    2.94000006
   16.26000023  132.81199646    4.90999985    2.94000006
   16.26583290  132.81199646    4.90999985    2.96000004
   16.27000046  126.28399658    4.90999985    2.94000006
   16.27305603  130.96699524    4.90999985    2.94000006
   16.27638817  129.00700378    4.90999985    2.94000006
   16.27972221  128.58500671    4.90999985    2.94000006
   16.28277779  124.08999634    4.90999985    2.93000007
   16.28610992  129.48699951    4.90999985    2.93000007
   16.28916550  128.07899475    4.90999985    2.96000004
   16.29249954  127.41600037    4.90999985    2.94000006
   16.29583359  128.96000671    4.90999985    2.96000004
   16.29805565  131.84899902    4.90999985    2.94000006
   16.29944420  123.60299683    4.90999985    2.96000004
   16.30249977  122.75700378    4.90999985    2.96000004
   16.30861092  122.75700378    4.90999985    2.96000004
   16.31277657  127.84300232    4.90999985    2.96000004
   16.31611061  127.26499939    4.90999985    2.94000006
   16.31916809  132.13800049    4.90999985    2.96000004
   16.32250023  125.76999664    4.90999985    2.96000004
   16.32555580  124.88600159    4.90999985    2.96000004
   16.32888985  123.37200165    4.90999985    2.96000004
   16.33139038  136.83999634    4.90999985    2.96000004
   16.33277893  121.95999908    4.90999985    2.96000004
   16.33583450  132.27999878    4.90999985    2.96000004
   16.33916664  130.13299561    4.90999985    2.96000004
   16.34222221  132.52900696    4.90999985    2.96000004
   16.34555626  136.28500366    4.90999985    2.96000004
   16.35138893  136.28500366    4.90999985    2.96000004
   16.35555649  120.20700073    4.90999985    2.96000004
   16.35888863  121.36499786    4.90999985    2.96000004
   16.36222267  116.85199738    4.90999985    2.96000004
   16.36472321  122.66799927    4.90999985    2.96000004
   16.36583328  129.57099915    4.90999985    2.94000006
   16.36888885  122.61499786    4.90999985    2.96000004
   16.37222290  120.50499725    4.90999985    2.96000004
   16.37527847  118.02300262    4.90999985    2.94000006
   16.37861061  122.42500305    4.90999985    2.96000004
   16.38194466  129.73199463    4.90999985    2.96000004
   16.38500023  129.41999817    4.90999985    2.96000004
   16.38833237  130.57000732    4.90999985    2.94000006
   16.39444351  130.57000732    4.90999985    2.96000004
   16.39833260  124.60399628    4.90999985    2.96000004
   16.40166664  124.27200317    4.90999985    2.96000004
   16.40499878  124.45300293    4.90999985    2.96000004
   16.40805435  130.87699890    4.90999985    2.96000004
   16.41138840  127.13899994    4.90999985    2.96000004
   16.41472244  118.94899750    4.90999985    2.96000004
   16.41777802  122.74500275    4.90999985    2.96000004
   16.42111015  123.06099701    4.90999985    2.94000006
   16.42416573  129.05299377    4.90999985    2.96000004
   16.42749977  128.96299744    4.90999985    2.96000004
   16.43083191  119.71600342    4.90999985    2.98000002
   16.43138885  127.77899933    4.90999985    2.98000002
   16.43722153  127.77899933    4.90999985    2.96000004
   16.44138718  121.29799652    4.90999985    2.96000004
   16.44444275  127.19499969    4.90999985    2.96000004
   16.44777679  126.17700195    4.90999985    2.96000004
   16.45111275  133.01499939    4.90999985    2.96000004
   16.45416832  134.13999939    4.90999985    2.96000004
   16.45750046  126.81900024    4.90999985    2.96000004
   16.46055603  129.38000488    4.90999985    2.96000004
   16.46389008  129.80200195    4.90999985    2.96000004
   16.46472359  125.51799774    4.90999985    2.98000002
   16.46750069  131.24800110    4.90999985    2.96000004
   16.47055626  125.83200073    4.90999985    2.96000004
   16.47389030  131.32200623    4.90999985    2.96000004
   16.48000145  131.32200623    4.90999985    2.96000004
   16.48416710  123.11299896    4.90999985    2.96000004
   16.48750114  125.25599670    4.90999985    2.96000004
   16.49055672  128.80200195    4.90999985    2.96000004
   16.49388885  125.13200378    4.90999985    2.96000004
   16.49694443  124.33599854    4.90999985    2.96000004
   16.49805641  128.22799683    4.90999985    2.96000004
   16.50083351  126.81199646    4.90999985    2.98000002
   16.50388908  124.98300171    4.90999985    2.98000002
   16.50722313  127.29900360    4.90999985    2.94000006
   16.51055527  125.99299622    4.90999985    2.94000006
   16.51361084  132.02600098    4.90999985    2.96000004
   16.51694489  134.26100159    4.90999985    2.96000004
   16.52277756  134.26100159    4.90999985    2.94000006
   16.52694511  137.11799622    4.90999985    2.96000004
   16.53027725  130.02000427    4.90999985    2.96000004
   16.53138924  135.23300171    4.90999985    2.96000004
   16.53388786  136.42300415    4.90999985    2.96000004
   16.53694344  124.83699799    4.90999985    2.98000002
   16.54027748  131.87699890    4.90999985    2.96000004
   16.54361153  129.41999817    4.90999985    2.94000006
   16.54666710  124.41500092    4.90999985    2.96000004
   16.54999924  132.05599976    4.90999985    2.96000004
   16.55333328  127.37599945    4.90999985    2.94000006
   16.55638885  133.92100525    4.90999985    2.96000004
   16.55972099  125.09400177    4.90999985    2.96000004
   16.56583214  125.09400177    4.90999985    2.96000004
   16.57000160  129.95300293    4.90999985    2.96000004
   16.57305717  133.47300720    4.90999985    2.96000004
   16.57638931  135.64399719    4.90999985    2.96000004
   16.57944489  124.18900299    4.90999985    2.96000004
   16.58277893  131.46899414    4.90999985    2.96000004
   16.58611107  131.92599487    4.90999985    2.96000004
   16.58916664  127.11100006    4.90999985    2.94000006
   16.59250069  128.44400024    4.90999985    2.96000004
   16.59583473  131.62199402    4.90999985    2.94000006
   16.59805679  128.77699280    4.90999985    2.96000004
   16.59944534  131.33299255    4.90999985    2.96000004
   16.60250092  133.18200684    4.90999985    2.96000004
   16.60861206  133.18200684    4.90999985    2.96000004
   16.61277771  131.03300476    4.90999985    2.96000004
   16.61583328  132.84700012    4.90999985    2.94000006
   16.61916733  121.09899902    4.90999985    2.94000006
   16.62249947  124.64700317    4.90999985    2.96000004
   16.62555504  126.43900299    4.90999985    2.96000004
   16.62888908  124.26000214    4.90999985    2.96000004
   16.63138962  124.53199768    4.90999985    2.96000004
   16.63249969  125.64099884    4.90999985    2.96000004
   16.63555527  128.18499756    4.90999985    2.96000004
   16.63888931  121.59200287    4.90999985    2.96000004
   16.64222145  133.85699463    4.90999985    2.96000004
   16.64527702  139.38800049    4.90999985    2.96000004
   16.65138817  139.38800049    4.90999985    2.94000006
   16.65555573  128.58700562    4.90999985    2.94000006
   16.65888786  126.99199677    4.90999985    2.94000006
   16.66194344  128.96200562    4.90999985    2.96000004
   16.66472244  130.88099670    4.90999985    2.96000004
   16.66583252  131.55999756    4.90999985    2.94000006
   16.66888809  137.46899414    4.90999985    2.96000004
   16.67222214  129.31199646    4.90999985    2.96000004
   16.67555428  143.93099976    4.90999985    2.96000004
   16.67860985  138.61500549    4.90999985    2.96000004
   16.68194389  127.86199951    4.90999985    2.96000004
   16.68499947  133.57200623    4.90999985    2.96000004
   16.68833160  124.13500214    4.90999985    2.96000004
   16.69416618  124.13500214    4.90999985    2.96000004
   16.69833183  137.38400269    4.90999985    2.96000004
   16.70166779  138.77499390    4.90999985    2.96000004
   16.70472336  135.71800232    4.90999985    2.96000004
   16.70805550  134.63999939    4.90999985    2.96000004
   16.71138954  126.40100098    4.90999985    2.94000006
   16.71444511  137.40199280    4.90999985    2.94000006
   16.71777916  136.85099792    4.90999985    2.96000004
   16.72111130  129.21800232    4.90999985    2.96000004
   16.72416687  128.50000000    4.90999985    2.96000004
   16.72750092  128.22900391    4.90999985    2.96000004
   16.73055649  127.89800262    4.90999985    2.96000004
   16.73139000  131.03700256    4.90999985    2.96000004
   16.73722267  131.03700256    4.90999985    2.96000004
   16.74111176  133.54800415    4.90999985    2.96000004
   16.74444389  130.89999390    4.90999985    2.96000004
   16.74777794  126.98400116    4.90999985    2.96000004
   16.75083351  139.16000366    4.90999985    2.96000004
   16.75416756  131.36599731    4.90999985    2.96000004
   16.75749969  131.99099731    4.90999985    2.94000006
   16.76055527  136.16000366    4.90999985    2.96000004
   16.76388931  127.35900116    4.90999985    2.96000004
   16.76472282  138.77099609    4.90999985    2.94000006
   16.76749992  131.63200378    4.90999985    2.96000004
   16.77055550  130.03399658    4.90999985    2.96000004
   16.77388954  134.02799988    4.90999985    2.94000006
   16.78000069  134.02799988    4.90999985    2.96000004
   16.78416634  124.00900269    4.90999985    2.96000004
   16.78722191  132.77000427    4.90999985    2.98000002
   16.79055595  124.41300201    4.90999985    2.96000004
   16.79388809  130.13400269    4.90999985    2.94000006
   16.79694366  127.51100159    4.90999985    2.96000004
   16.79805565  128.62500000    4.90999985    2.96000004
   16.80083275  130.94799805    4.90999985    2.96000004
   16.80388832  128.23699951    4.90999985    2.98000002
   16.80722237  127.52500153    4.90999985    2.94000006
   16.81055450  126.50499725    4.90999985    2.96000004
   16.81361008  129.40499878    4.90999985    2.96000004
   16.81694603  129.25500488    4.90999985    2.94000006
   16.82277870  129.25500488    4.90999985    2.96000004
   16.82694626  122.47100067    4.90999985    2.96000004
   16.83027840  125.76399994    4.90999985    2.96000004
   16.83139038  133.81900024    4.90999985    2.96000004
   16.83388901  133.68400574    4.90999985    2.96000004
   16.83694458  118.79100037    4.90999985    2.96000004
   16.84027863  129.38400269    4.90999985    2.96000004
   16.84361267  130.86099243    4.90999985    2.96000004
   16.84666824  131.81199646    4.90999985    2.96000004
   16.85000038  139.39599609    4.90999985    2.94000006
   16.85333443  136.30299377    4.90999985    2.94000006
   16.85639000  130.53900146    4.90999985    2.94000006
   16.85972214  128.21600342    4.90999985    2.94000006
   16.86555672  128.21600342    4.90999985    2.96000004
   16.86972237  127.11399841    4.90999985    2.96000004
   16.87305641  128.66999817    4.90999985    2.94000006
   16.87611198  129.58200073    4.90999985    2.94000006
   16.87944412  127.48500061    4.90999985    2.94000006
   16.88277817  127.56600189    4.90999985    2.96000004
   16.88583374  133.25599670    4.90999985    2.96000004
   16.88916588  127.48000336    4.90999985    2.96000004
   16.89249992  130.07099915    4.90999985    2.96000004
   16.89555550  128.54699707    4.90999985    2.94000006
   16.89805603  132.05000305    4.90999985    2.94000006
   16.89916611  126.09400177    4.90999985    2.94000006
   16.90222168  131.92700195    4.90999985    2.94000006
   16.90861130  131.92700195    4.90999985    2.96000004
   16.91250038  123.59999847    4.90999985    2.94000006
   16.91583252  128.05700684    4.90999985    2.96000004
   16.91916656  132.88800049    4.90999985    2.94000006
   16.92222214  128.10899353    4.90999985    2.94000006
   16.92555428  120.83300018    4.90999985    2.96000004
   16.92888832  123.66600037    4.90999985    2.96000004
   16.93138885  122.69899750    4.90999985    2.96000004
   16.93249893  124.74099731    4.90999985    2.94000006
   16.93555450  120.84700012    4.90999985    0.92000002
   16.93888855  128.13400269    4.90999985    0.63000000
   16.94222069  116.27799988    4.90999985    2.96000004
   16.94527626  126.77600098    4.90999985    2.96000004
   16.95138931  126.77600098    4.90999985    2.94000006
   16.95555687  119.75800323    4.90999985    2.94000006
   16.95861244  120.91400146    4.90999985    2.94000006
   16.96194458  124.99700165    4.90999985    2.96000004
   16.96472359  126.61699677    4.90999985    2.98000002
   16.96555710  127.08300018    4.90999985    2.98000002
   16.96861076  130.21200562    4.90999985    2.94000006
   16.97194481  137.44999695    4.90999985    2.96000004
   16.97527885  133.29800415    4.90999985    2.94000006
   16.97833443  129.43699646    4.90999985    2.94000006
   16.98166656  124.11299896    4.90999985    2.96000004
   16.98500061  130.45100403    4.90999985    2.94000006
   16.98805618  130.15699768    4.90999985    2.94000006
   16.99416733  130.15699768    4.90999985    2.94000006
   16.99833298  131.05599976    4.90999985    2.94000006
   17.00166702  134.97500610    4.90999985    2.94000006
   17.00472260  127.79000092    4.90999985    2.94000006
   17.00805473  130.05200195    4.90999985    2.94000006
   17.01138878  129.58900452    4.90999985    2.94000006
   17.01444435  124.81900024    4.90999985    2.94000006
   17.01777840  124.50399780    4.90999985    2.94000006
   17.02083397  132.05000305    4.90999985    2.94000006
   17.02416611  125.70400238    4.90999985    2.96000004
   17.02750015  132.56199646    4.90999985    2.94000006
   17.03055573  136.93600464    4.90999985    2.94000006
   17.03138924  123.86799622    4.90999985    2.94000006
   17.05222130  123.86799622    4.90999985    2.94000006
   17.05638885  133.61300659    4.90999985    2.94000006
   17.05944443  130.33599854    4.90999985    2.94000006
   17.06277657  128.52600098    4.90999985    2.94000006
   17.06472206  126.41699982    4.90999985    2.94000006
   17.06638718  129.36599731    4.90999985    2.94000006
   17.06944466  136.95899963    4.90999985    2.94000006
   17.07277870  126.12599945    4.90999985    2.94000006
   17.07611275  130.71800232    4.90999985    2.94000006
   17.07916832  136.34700012    4.90999985    2.94000006
   17.08250046  126.65100098    4.90999985    2.94000006
   17.08583450  130.78999329    4.90999985    2.94000006
   17.08889008  116.12000275    4.90999985    2.94000006
   17.09500122  116.12000275    4.90999985    2.96000004
   17.09889030  116.80100250    4.90999985    2.94000006
   17.10222244  126.92400360    4.90999985    2.94000006
   17.10555649  125.63600159    4.90999985    2.94000006
   17.10861206  126.51300049    4.90999985    2.94000006
   17.11194420  126.20899963    4.90999985    2.94000006
   17.11527824  131.91200256    4.90999985    2.94000006
   17.11833382  139.10000610    4.90999985    2.94000006
   17.12166595  133.52799988    4.90999985    2.94000006
   17.12472153  129.12899780    4.90999985    2.94000006
   17.12805557  136.28500366    4.90999985    2.94000006
   17.13138962  136.23699951    4.90999985    2.94000006
   17.13194466  130.09800720    4.90999985    2.94000006
   17.13777733  130.09800720    4.90999985    2.96000004
   17.14194489  141.23599243    4.90999985    2.94000006
   17.14500046  139.19099426    4.90999985    2.94000006
   17.14833260  137.48100281    4.90999985    2.94000006
   17.15166664  132.60299683    4.90999985    2.96000004
   17.15472221  124.43299866    4.90999985    2.94000006
   17.15805435  121.26799774    4.90999985    2.96000004
   17.16110992  133.10200500    4.90999985    2.94000006
   17.16444397  128.35299683    4.90999985    2.96000004
   17.16527748  126.92199707    4.90999985    2.96000004
   17.16805458  134.65800476    4.90999985    2.94000006
   17.17138863  135.37399292    4.90999985    2.96000004
   17.17472076  131.03199768    4.90999985    2.94000006
   17.18055534  131.03199768    4.90999985    2.96000004
   17.18472099  121.63500214    4.90999985    2.94000006
   17.18805504  131.67700195    4.90999985    2.94000006
   17.19111061  130.11799622    4.90999985    2.96000004
   17.19444275  139.92799377    4.90999985    2.94000006
   17.19749832  128.12699890    4.90999985    2.94000006
   17.19861031  121.48500061    4.90999985    2.94000006
   17.20111275  139.52900696    4.90999985    2.94000006
   17.20444489  140.57200623    4.90999985    2.94000006
   17.20777893  139.77299500    4.90999985    2.94000006
   17.21083450  135.75799561    4.90999985    2.96000004
   17.21416664  122.80899811    4.90999985    2.96000004
   17.21750069  133.42500305    4.90999985    2.94000006
   17.22333336  133.42500305    4.90999985    2.96000004
   17.22750092  119.14600372    4.90999985    2.96000004
   17.23083305  139.33299255    4.90999985    2.94000006
   17.23194504  128.97900391    4.90999985    2.94000006
   17.23444557  126.27300262    4.90999985    2.94000006
   17.23777771  130.53999329    4.90999985    2.94000006
   17.24111176  141.13800049    4.90999985    2.94000006
   17.24416733  139.17100525    4.90999985    2.94000006
   17.24749947  130.49899292    4.90999985    2.94000006
   17.25055504  128.51699829    4.90999985    2.96000004
   17.25388908  130.25399780    4.90999985    2.94000006
   17.25722313  132.50900269    4.90999985    2.96000004
   17.26027870  133.58500671    4.90999985    2.94000006
   17.26638794  133.58500671    4.90999985    2.94000006
   17.27027702  137.28199768    4.90999985    2.94000006
   17.27361107  133.64300537    4.90999985    2.94000006
   17.27694511  131.54299927    4.90999985    2.94000006
   17.28000069  132.94799805    4.90999985    2.94000006
   17.28333282  137.75000000    4.90999985    2.94000006
   17.28666687  133.86599731    4.90999985    2.94000006
   17.28972244  138.06799316    4.90999985    2.94000006
   17.29305458  138.29699707    4.90999985    2.94000006
   17.29611015  128.19200134    4.90999985    2.94000006
   17.29861069  147.26300049    4.90999985    2.94000006
   17.29972076  131.78300476    4.90999985    2.94000006
   17.30305481  134.57800293    4.90999985    2.94000006
   17.30916595  134.57800293    4.90999985    2.94000006
   17.31333351  139.32600403    4.90999985    2.94000006
   17.31638718  131.33500671    4.90999985    2.94000006
   17.31972313  132.90400696    4.90999985    2.94000006
   17.32305717  136.41499329    4.90999985    2.94000006
   17.32611275  138.29499817    4.90999985    2.94000006
   17.32944489  135.01100159    4.90999985    2.94000006
   17.33194542  140.90100098    4.90999985    2.94000006
   17.33305550  130.05499268    4.90999985    2.93000007
   17.33638954  129.55200195    4.90999985    2.93000007
   17.33972359  134.70100403    4.90999985    2.93000007
   17.34277916  132.94900513    4.90999985    2.94000006
   17.34611130  128.82299805    4.90999985    2.94000006
   17.35194397  128.82299805    4.90999985    2.96000004
   17.35611153  131.51499939    4.90999985    2.94000006
   17.35944557  130.64799500    4.90999985    2.94000006
   17.36250114  123.14600372    4.90999985    2.96000004
   17.36527824  129.42700195    4.90999985    2.94000006
   17.36611176  129.95599365    4.90999985    2.94000006
   17.36944389  130.05299377    4.90999985    2.94000006
   17.37277794  132.48599243    4.90999985    2.93000007
   17.37583351  128.29100037    4.90999985    2.94000006
   17.37916756  130.53199768    4.90999985    2.94000006
   17.38222313  124.76699829    4.90999985    2.93000007
   17.38555527  129.81700134    4.90999985    2.94000006
   17.38888931  135.42100525    4.90999985    2.94000006
   17.39472198  135.42100525    4.90999985    2.94000006
   17.39888954  124.44899750    4.90999985    2.96000004
   17.40222168  124.38800049    4.90999985    2.96000004
   17.40527725  126.13999939    4.90999985    2.94000006
   17.40861130  128.96600342    4.90999985    2.94000006
   17.41194344  129.74200439    4.90999985    2.96000004
   17.41499901  126.67700195    4.90999985    2.94000006
   17.41833305  129.51300049    4.90999985    2.94000006
   17.42166519  133.30099487    4.90999985    2.94000006
   17.42472076  131.44500732    4.90999985    2.94000006
   17.42805481  135.43499756    4.90999985    2.94000006
   17.43111038  129.11900330    4.90999985    2.94000006
   17.43194389  131.20899963    4.90999985    2.94000006
   17.43777657  131.20899963    4.90999985    2.96000004
   17.44166565  125.28800201    4.90999985    2.94000006
   17.44499969  134.61000061    4.90999985    2.94000006
   17.44833183  132.71899414    4.90999985    2.94000006
   17.45138931  126.88400269    4.90999985    2.94000006
   17.45472336  140.41200256    4.90999985    2.94000006
   17.45805550  132.07200623    4.90999985    2.96000004
   17.46111107  135.88900757    4.90999985    2.94000006
   17.46444511  133.79899597    4.90999985    2.94000006
   17.46527863  134.73699951    4.90999985    2.94000006
   17.46805573  135.95599365    4.90999985    2.94000006
   17.47111130  131.78999329    4.90999985    2.94000006
   17.47444534  141.61300659    4.90999985    2.94000006
   17.48055649  141.61300659    4.90999985    2.94000006
   17.48472214  141.85299683    4.90999985    2.93000007
   17.48777771  135.82800293    4.90999985    2.93000007
   17.49111176  140.25300598    4.90999985    2.94000006
   17.49444389  121.66500092    4.90999985    2.94000006
   17.49749947  143.26199341    4.90999985    2.94000006
   17.49861145  133.92700195    4.90999985    2.94000006
   17.50111198  137.43499756    4.90999985    2.94000006
   17.50444412  128.46099854    4.90999985    2.94000006
   17.50777817  126.78900146    4.90999985    2.94000006
   17.51083374  139.50900269    4.90999985    2.94000006
   17.51416588  130.30999756    4.90999985    2.94000006
   17.51749992  125.26200104    4.90999985    2.94000006
   17.52333260  125.26200104    4.90999985    2.94000006
   17.52750015  136.53399658    4.90999985    2.94000006
   17.53083229  137.87300110    4.90999985    2.94000006
   17.53194427  132.55299377    4.90999985    2.94000006
   17.53416634  122.27700043    4.90999985    2.94000006
   17.53750038  132.09700012    4.90999985    2.94000006
   17.54083252  127.21099854    4.90999985    2.94000006
   17.54388809  136.81199646    4.90999985    2.94000006
   17.54722214  136.50599670    4.90999985    2.93000007
   17.55055428  139.79200745    4.90999985    2.94000006
   17.55360985  134.46699524    4.90999985    2.94000006
   17.55694389  127.87500000    4.90999985    2.94000006
   17.56027794  130.09800720    4.90999985    2.94000006
   17.56611061  130.09800720    4.90999985    2.94000006
   17.57027817  123.41999817    4.90999985    2.94000006
   17.57361221  138.71000671    4.90999985    2.94000006
   17.57666779  131.50100708    4.90999985    2.94000006
   17.58000183  129.26699829    4.90999985    2.94000006
   17.58333397  130.20599365    4.90999985    2.94000006
   17.58638954  132.94000244    4.90999985    2.94000006
   17.58972359  133.06399536    4.90999985    2.93000007
   17.59305573  136.92900085    4.90999985    2.94000006
   17.59611130  130.47099304    4.90999985    2.94000006
   17.59861183  135.44099426    4.90999985    2.94000006
   17.59972191  131.97300720    4.90999985    2.94000006
   17.60305595  135.32200623    4.90999985    2.94000006
   17.60916710  135.32200623    4.90999985    2.94000006
   17.61305618  124.66500092    4.90999985    2.94000006
   17.61638832  138.17599487    4.90999985    2.94000006
   17.61972237  134.84300232    4.90999985    2.94000006
   17.62277794  129.97300720    4.90999985    2.94000006
   17.62611198  135.46600342    4.90999985    2.94000006
   17.62916756  131.86000061    4.90999985    2.93000007
   17.63194466  131.79299927    4.90999985    2.94000006
   17.63277817  129.52499390    4.90999985    2.94000006
   17.63611031  128.77699280    4.90999985    2.94000006
   17.63944435  134.25700378    4.90999985    2.94000006
   17.64249992  136.11599731    4.90999985    2.94000006
   17.64583397  132.01499939    4.90999985    2.94000006
   17.65194321  132.01499939    4.90999985    2.94000006
   17.65611076  131.72900391    4.90999985    2.93000007
   17.65916634  137.64900208    4.90999985    2.94000006
   17.66250038  134.35099792    4.90999985    2.94000006
   17.66527748  136.74699402    4.90999985    2.94000006
   17.66583252  132.90699768    4.90999985    2.94000006
   17.66916656  142.91799927    4.90999985    2.94000006
   17.67249870  136.03500366    4.90999985    2.94000006
   17.67555428  131.32000732    4.90999985    2.94000006
   17.67888832  138.16999817    4.90999985    2.94000006
   17.68222237  132.76400757    4.90999985    2.94000006
   17.68527603  144.03199768    4.90999985    2.94000006
   17.68861008  132.87300110    4.90999985    2.94000006
   17.69472122  132.87300110    4.90999985    2.93000007
   17.69888878  136.37699890    4.90999985    2.94000006
   17.70194435  131.93600464    4.90999985    2.93000007
   17.70527840  133.78199768    4.90999985    2.93000007
   17.70861244  135.98699951    4.90999985    2.91000009
   17.71166801  131.88600159    4.90999985    2.93000007
   17.71500015  129.51300049    4.90999985    2.94000006
   17.71833420  129.19000244    4.90999985    2.94000006
   17.72138977  127.18900299    4.90999985    2.94000006
   17.72472191  132.11000061    4.90999985    2.94000006
   17.72805595  133.12800598    4.90999985    2.93000007
   17.73111153  126.80000305    4.90999985    2.94000006
   17.73194504  141.13099670    4.90999985    2.94000006
   17.73750114  141.13099670    4.90999985    2.93000007
   17.74166679  129.85400391    4.90999985    2.93000007
   17.74500084  124.23600006    4.90999985    2.94000006
   17.74805641  129.08700562    4.90999985    2.94000006
   17.75138855  132.44000244    4.90999985    2.94000006
   17.75472260  135.86599731    4.90999985    2.93000007
   17.75777817  131.37500000    4.90999985    2.93000007
   17.76111031  126.12599945    4.90999985    2.93000007
   17.76416588  139.11999512    4.90999985    2.93000007
   17.76527786  136.65299988    4.90999985    2.93000007
   17.76805496  126.20400238    4.90999985    2.94000006
   17.77111053  133.44799805    4.90999985    2.94000006
   17.77444458  133.18899536    4.90999985    2.93000007
   17.78027725  133.18899536    4.90999985    2.94000006
   17.78444481  134.47200012    4.90999985    2.94000006
   17.78777695  126.78800201    4.90999985    2.94000006
   17.79111099  133.53300476    4.90999985    2.94000006
   17.79416656  137.71400452    4.90999985    2.94000006
   17.79749870  127.95999908    4.90999985    2.94000006
   17.79861069  139.65499878    4.90999985    2.94000006
   17.80111122  129.83900452    4.90999985    2.93000007
   17.80416679  132.89700317    4.90999985    2.94000006
   17.80749893  134.88400269    4.90999985    2.93000007
   17.81055450  141.21200562    4.90999985    2.93000007
   17.81388855  131.75199890    4.90999985    2.94000006
   17.81722260  134.55799866    4.90999985    2.94000006
   17.82333374  134.55799866    4.90999985    2.94000006
   17.82750130  132.88499451    4.90999985    2.93000007
   17.83055687  132.75399780    4.90999985    2.93000007
   17.83194542  140.80499268    4.90999985    2.94000006
   17.83444595  133.57699585    4.90999985    2.93000007
   17.83750153  133.16299438    4.90999985    2.93000007
   17.84083366  132.69299316    4.90999985    2.94000006
   17.84388924  132.03399658    4.90999985    2.94000006
   17.84722328  136.92399597    4.90999985    2.94000006
   17.85055542  136.57400513    4.90999985    2.94000006
   17.85361099  133.33399963    4.90999985    2.93000007
   17.85694504  131.54600525    4.90999985    2.94000006
   17.86027908  136.61300659    4.90999985    2.93000007
   17.86611176  136.61300659    4.90999985    2.94000006
   17.87027740  135.91799927    4.90999985    2.93000007
   17.87333298  133.13499451    4.90999985    2.93000007
   17.87666702  125.15599823    4.90999985    2.93000007
   17.88000107  124.68699646    4.90999985    2.93000007
   17.88305473  125.61199951    4.90999985    2.93000007
   17.88638878  134.67300415    4.90999985    2.94000006
   17.88972282  128.96099854    4.90999985    2.94000006
   17.89277840  129.86999512    4.90999985    2.93000007
   17.89611053  130.30000305    4.90999985    2.93000007
   17.89861107  125.77600098    4.90999985    2.93000007
   17.89972115  128.97900391    4.90999985    2.93000007
   17.90277672  132.16799927    4.90999985    2.93000007
   17.90888786  132.16799927    4.90999985    2.93000007
   17.91305542  120.15200043    4.90999985    2.93000007
   17.91638756  127.44899750    4.90999985    2.93000007
   17.91944313  132.42100525    4.90999985    2.93000007
   17.92277718  134.02900696    4.90999985    2.93000007
   17.92611122  124.64199829    4.90999985    2.94000006
   17.92916679  130.70300293    4.90999985    2.94000006
   17.93194389  124.04499817    4.90999985    2.94000006
   17.93305397  129.04400635    4.90999985    2.94000006
   17.93610954  121.27100372    4.90999985    2.93000007
   17.93944359  124.11599731    4.90999985    2.93000007
   17.94277763  134.24600220    4.90999985    2.93000007
   17.94583321  133.36900330    4.90999985    2.93000007
   17.95166779  133.36900330    4.90999985    2.93000007
   17.95583344  127.75700378    4.90999985    2.91000009
   17.95916748  135.95799255    4.90999985    2.93000007
   17.96250153  132.91600037    4.90999985    2.93000007
   17.96527863  127.61599731    4.90999985    2.93000007
   17.96611214  129.34700012    4.90999985    2.94000006
   17.96916771  126.53399658    4.90999985    2.93000007
   17.97249985  119.31700134    4.90999985    2.93000007
   17.97583389  132.21699524    4.90999985    2.93000007
   17.97888947  127.45600128    4.90999985    2.93000007
   17.98222351  131.79499817    4.90999985    2.93000007
   17.98527718  132.81700134    4.90999985    2.93000007
   17.98861122  134.76600647    4.90999985    2.93000007
   17.99472237  134.76600647    4.90999985    2.93000007
   17.99888992  136.04200745    4.90999985    2.94000006
   18.00194359  137.49600220    4.90999985    2.93000007
   18.00527763  132.25000000    4.90999985    2.93000007
   18.00833321  134.58000183    4.90999985    2.93000007
   18.01166725  133.74600220    4.90999985    2.93000007
   18.01499939  135.34599304    4.90999985    2.93000007
   18.01805496  142.10600281    4.90999985    2.93000007
   18.02138901  128.21600342    4.90999985    2.93000007
   18.02472115  136.46499634    4.90999985    2.93000007
   18.02777672  133.02200317    4.90999985    2.93000007
   18.03111076  134.37399292    4.90999985    2.93000007
   18.03194427  140.11700439    4.90999985    2.94000006
   18.03750038  140.11700439    4.90999985    2.93000007
   18.04166603  138.69400024    4.90999985    2.93000007
   18.04472160  131.52299500    4.90999985    2.94000006
   18.04805565  139.51800537    4.90999985    2.93000007
   18.06555557  133.19500732    4.90999985    2.93000007
   18.06805611  137.34700012    4.90999985    2.94000006
   18.07139015  133.67500305    4.90999985    2.93000007
   18.07444572  126.22299957    4.90999985    2.94000006
   18.08055687  126.22299957    4.90999985    2.93000007
   18.08472252  137.57699585    4.90999985    2.91000009
   18.08777809  124.31999969    4.90999985    2.93000007
   18.09111214  137.01800537    4.90999985    2.93000007
   18.09444427  130.22799683    4.90999985    2.93000007
   18.09749985  123.92099762    4.90999985    2.93000007
   18.09889030  132.89599609    4.90999985    2.94000006
   18.10138893  135.32099915    4.90999985    2.93000007
   18.10444450  134.66700745    4.90999985    2.93000007
   18.10777855  127.14399719    4.90999985    2.93000007
   18.11111069  132.93299866    4.90999985    2.93000007
   18.11416626  138.56199646    4.90999985    2.93000007
   18.11750031  130.37899780    4.90999985    2.93000007
   18.12333298  130.37899780    4.90999985    2.94000006
   18.12750053  136.08200073    4.90999985    2.93000007
   18.13083267  134.51499939    4.90999985    2.93000007
   18.13222313  130.35699463    4.90999985    2.93000007
   18.13444519  129.32299805    4.90999985    2.93000007
   18.13750076  138.60499573    4.90999985    2.93000007
   18.14083290  134.66700745    4.90999985    2.93000007
   18.14416695  138.79699707    4.90999985    2.93000007
   18.14722252  133.67500305    4.90999985    2.93000007
   18.15055466  130.29600525    4.90999985    2.93000007
   18.15388870  137.66000366    4.90999985    2.93000007
   18.15694427  132.00100708    4.90999985    2.93000007
   18.16027832  136.17399597    4.90999985    2.93000007
   18.16611099  136.17399597    4.90999985    2.93000007
   18.17027664  137.53500366    4.90999985    2.93000007
   18.17361069  132.34500122    4.90999985    2.93000007
   18.17666626  132.03399658    4.90999985    2.94000006
   18.18000031  135.94599915    4.90999985    2.93000007
   18.18333244  123.44200134    4.90999985    2.93000007
   18.18638802  140.35600281    4.90999985    2.91000009
   18.18972206  128.37300110    4.90999985    2.93000007
   18.19305420  135.79899597    4.90999985    2.93000007
   18.19610977  129.40499878    4.90999985    2.93000007
   18.19888878  132.33299255    4.90999985    2.93000007
   18.20000076  136.59300232    4.90999985    2.93000007
   18.20305634  127.05899811    4.90999985    2.93000007
   18.20916748  127.05899811    4.90999985    2.93000007
   18.21305656  136.88200378    4.90999985    2.93000007
   18.21638870  134.18200684    4.90999985    2.93000007
   18.21972275  143.08299255    4.90999985    2.93000007
   18.22277832  136.07600403    4.90999985    2.93000007
   18.22611237  123.97399902    4.90999985    2.93000007
   18.22944450  134.52299500    4.90999985    2.93000007
   18.23222351  133.67799377    4.90999985    2.93000007
   18.23305511  136.60000610    4.90999985    2.91000009
   18.23611069  130.51800537    4.90999985    2.93000007
   18.23944473  130.51699829    4.90999985    2.93000007
   18.24277878  127.04000092    4.90999985    2.93000007
   18.24583435  129.22900391    4.90999985    2.93000007
   18.25194359  129.22900391    4.90999985    2.93000007
   18.25611115  131.37199402    4.90999985    2.93000007
   18.25916672  127.07299805    4.90999985    2.93000007
   18.26250076  139.69700623    4.90999985    2.93000007
   18.26555634  133.14500427    4.90999985    2.93000007
   18.26611137  130.71499634    4.90999985    2.93000007
   18.26916695  122.25099945    4.90999985    2.93000007
   18.27249908  134.17700195    4.90999985    2.93000007
   18.27583313  132.91900635    4.90999985    2.93000007
   18.27888870  131.64399719    4.90999985    2.91000009
   18.28222275  135.06199646    4.90999985    2.93000007
   18.28555489  131.08099365    4.90999985    2.93000007
   18.28861046  136.58399963    4.90999985    2.91000009
   18.29472160  136.58399963    4.90999985    2.93000007
   18.29888916  131.33399963    4.90999985    2.91000009
   18.29944420  146.98899841    4.90999985    2.93000007
   18.30249977  126.97000122    4.90999985    2.93000007
   18.30583191  139.38200378    4.90999985    2.93000007
   18.30916595  142.76400757    4.90999985    2.93000007
   18.31222153  135.87500000    4.90999985    2.93000007
   18.31555557  137.55499268    4.90999985    2.93000007
   18.31888962  138.68400574    4.90999985    2.93000007
   18.32194519  145.35099792    4.90999985    2.93000007
   18.32527924  129.50599670    4.90999985    2.93000007
   18.32861137  136.41400146    4.90999985    2.91000009
   18.33166695  137.81399536    4.90999985    2.93000007
   18.33222389  144.32499695    4.90999985    2.93000007
   18.33750153  144.32499695    4.90999985    2.91000009
   18.34166718  143.80200195    4.90999985    2.93000007
   18.34500122  134.89900208    4.90999985    2.93000007
   18.34805679  134.73699951    4.90999985    2.91000009
   18.35138893  139.25000000    4.90999985    2.93000007
   18.35472298  141.12399292    4.90999985    2.91000009
   18.35777855  136.05700684    4.90999985    2.93000007
   18.36111069  128.24899292    4.90999985    2.91000009
   18.36444473  138.38000488    4.90999985    2.91000009
   18.36555672  133.84800720    4.90999985    2.93000007
   18.36805534  136.30299377    4.90999985    2.93000007
   18.37138939  135.01400757    4.90999985    2.93000007
   18.37444496  140.42900085    4.90999985    2.93000007
   18.38055611  140.42900085    4.90999985    2.93000007
   18.38444519  137.95300293    4.90999985    2.91000009
   18.38777733  140.10000610    4.90999985    2.93000007
   18.39111137  139.25300598    4.90999985    2.93000007
   18.39416695  140.08599854    4.90999985    2.93000007
   18.39749908  128.64100647    4.90999985    2.93000007
   18.39888954  140.25100708    4.90999985    2.91000009
   18.40111160  137.06900024    4.90999985    2.93000007
   18.40444374  131.72399902    4.90999985    2.93000007
   18.40749931  136.93400574    4.90999985    2.91000009
   18.41083336  150.64999390    4.90999985    2.93000007
   18.41388893  143.69200134    4.90999985    2.91000009
   18.41722107  130.34599304    4.90999985    2.93000007
   18.42333221  130.34599304    4.90999985    2.94000006
   18.42749977  133.32400513    4.90999985    2.93000007
   18.43055534  129.30000305    4.90999985    2.93000007
   18.43222237  131.10600281    4.90999985    2.93000007
   18.43444443  143.17199707    4.90999985    2.93000007
   18.43777657  144.72999573    4.90999985    2.91000009
   18.44083214  141.40800476    4.90999985    2.93000007
   18.44416618  137.47200012    4.90999985    2.93000007
   18.44722176  140.68600464    4.90999985    2.91000009
   18.45055580  131.85200500    4.90999985    2.93000007
   18.45388985  136.98800659    4.90999985    2.93000007
   18.45694542  140.60899353    4.90999985    2.93000007
   18.46027946  139.15800476    4.90999985    2.93000007
   18.46611214  139.15800476    4.90999985    2.91000009
   18.47027779  135.28199768    4.90999985    2.91000009
   18.47333336  137.29899597    4.90999985    2.93000007
   18.47666740  144.57200623    4.90999985    2.91000009
   18.48000145  146.12100220    4.90999985    2.91000009
   18.48305511  142.65199280    4.90999985    2.91000009
   18.48638916  133.35200500    4.90999985    2.91000009
   18.48972321  134.10000610    4.90999985    2.91000009
   18.49277878  137.28199768    4.90999985    2.93000007
   18.49611092  137.81100464    4.90999985    2.93000007
   18.49888992  138.17199707    4.90999985    2.91000009
   18.49972153  142.72099304    4.90999985    2.91000009
   18.50305557  131.55200195    4.90999985    2.91000009
   18.50888824  131.55200195    4.90999985    2.93000007
   18.51305580  133.58799744    4.90999985    2.91000009
   18.51638794  137.30099487    4.90999985    2.93000007
   18.51944351  132.62699890    4.90999985    2.93000007
   18.52277756  131.61700439    4.90999985    2.91000009
   18.52611160  122.51300049    4.90999985    2.93000007
   18.52916718  133.15699768    4.90999985    2.93000007
   18.53222275  121.61199951    4.90999985    2.93000007
   18.53277779  135.68899536    4.90999985    2.93000007
   18.53610992  138.82699585    4.90999985    2.93000007
   18.53916550  134.00100708    4.90999985    2.93000007
   18.54249954  134.44999695    4.90999985    2.93000007
   18.54555511  130.05499268    4.90999985    2.93000007
   18.55194283  130.05499268    4.90999985    2.93000007
   18.55583191  132.24899292    4.90999985    2.91000009
   18.55916595  127.60399628    4.90999985    2.93000007
   18.56250000  139.76300049    4.90999985    2.93000007
   18.56555557  139.75900269    4.90999985    2.91000009
   18.56611061  132.12100220    4.90999985    2.91000009
   18.56944466  123.20300293    4.90999985    2.91000009
   18.57250023  137.34500122    4.90999985    2.93000007
   18.57583427  137.69099426    4.90999985    2.91000009
   18.57888985  139.09399414    4.90999985    2.93000007
   18.58222389  135.51499939    4.90999985    2.93000007
   18.58555603  135.56199646    4.90999985    2.91000009
   18.58861160  133.89799500    4.90999985    2.91000009
   18.59472275  133.89799500    4.90999985    2.91000009
   18.59889030  127.78299713    4.90999985    2.93000007
   18.59944534  125.91699982    4.90999985    2.93000007
   18.60250092  141.43099976    4.90999985    2.93000007
   18.60583305  132.27200317    4.90999985    2.91000009
   18.60916710  136.45500183    4.90999985    2.91000009
   18.61222267  132.26600647    4.90999985    2.91000009
   18.61555672  135.82899475    4.90999985    2.91000009
   18.61861038  134.16000366    4.90999985    2.93000007
   18.62194443  134.32699585    4.90999985    2.91000009
   18.62527847  138.97700500    4.90999985    2.91000009
   18.62833405  127.15799713    4.90999985    2.91000009
   18.63166618  133.45599365    4.90999985    2.91000009
   18.63277817  138.63000488    4.90999985    2.91000009
   18.63750076  138.63000488    4.90999985    2.91000009
   18.64166641  132.90199280    4.90999985    2.91000009
   18.64500046  138.19299316    4.90999985    2.89000010
   18.64805603  144.73199463    4.90999985    2.91000009
   18.65138817  142.86599731    4.90999985    2.91000009
   18.65472221  142.17900085    4.90999985    2.91000009
   18.65777779  149.56100464    4.90999985    2.91000009
   18.66110992  143.72300720    4.90999985    2.91000009
   18.66444397  148.91299438    4.90999985    2.91000009
   18.66611099  138.60400391    4.90999985    2.91000009
   18.66777802  159.77000427    4.90999985    2.91000009
   18.67111015  149.11900330    4.90999985    2.91000009
   18.67444420  137.27099609    4.90999985    2.91000009
   18.68027687  137.27099609    4.90999985    2.91000009
   18.68444443  130.48500061    4.90999985    2.91000009
   18.68777657  134.14900208    4.90999985    2.91000009
   18.69083214  134.18099976    4.90999985    2.91000009
   18.69416618  141.46000671    4.90999985    2.91000009
   18.69749832  144.52600098    4.90999985    2.91000009
   18.69944382  134.97399902    4.90999985    2.91000009
   18.70111275  140.72700500    4.90999985    2.91000009
   18.70444489  143.04400635    4.90999985    2.91000009
   18.70777893  147.73800659    4.90999985    2.91000009
   18.71083450  137.35099792    4.90999985    2.91000009
   18.71416664  142.75199890    4.90999985    2.91000009
   18.71722221  148.95300293    4.90999985    2.91000009
   18.72333336  148.95300293    4.90999985    2.91000009
   18.72722244  132.78300476    4.90999985    2.91000009
   18.73055649  138.70500183    4.90999985    2.91000009
   18.73277855  138.66700745    4.90999985    2.91000009
   18.73416710  145.53900146    4.90999985    2.91000009
   18.73750114  138.78199768    4.90999985    2.91000009
   18.74083328  136.98100281    4.90999985    2.91000009
   18.74388885  138.49400330    4.90999985    2.91000009
   18.74722290  142.17599487    4.90999985    2.91000009
   18.75027847  132.74099731    4.90999985    2.91000009
   18.75361061  135.82299805    4.90999985    2.91000009
   18.75694466  139.87899780    4.90999985    2.89000010
   18.76000023  133.90299988    4.90999985    2.91000009
   18.76611137  133.90299988    4.90999985    2.89000010
   18.77027702  129.83200073    4.90999985    2.91000009
   18.77333260  132.09399414    4.90999985    2.91000009
   18.77666664  142.25700378    4.90999985    2.91000009
   18.78000069  135.54800415    4.90999985    2.91000009
   18.78305435  136.64500427    4.90999985    2.91000009
   18.78638840  134.37500000    4.90999985    2.91000009
   18.78944397  140.56100464    4.90999985    2.89000010
   18.79277802  138.13800049    4.90999985    2.91000009
   18.79611015  139.49899292    4.90999985    2.89000010
   18.79916573  141.55799866    4.90999985    2.89000010
   18.79972076  141.19400024    4.90999985    2.91000009
   18.80305481  139.05900574    4.90999985    2.89000010
   18.80888748  139.05900574    4.90999985    2.91000009
   18.81305504  133.97999573    4.90999985    2.91000009
   18.81638718  137.54400635    4.90999985    2.91000009
   18.81944466  131.73100281    4.90999985    2.91000009
   18.82277870  134.87500000    4.90999985    2.91000009
   18.82583427  144.48699951    4.90999985    2.89000010
   18.82916832  146.35000610    4.90999985    2.91000009
   18.83250046  139.32099915    4.90999985    2.91000009
   18.83305550  139.82600403    4.90999985    2.91000009
   18.83611107  133.24099731    4.90999985    2.89000010
   18.83944511  132.33200073    4.90999985    2.91000009
   18.84250069  137.45100403    4.90999985    2.91000009
   18.84583473  125.59799957    4.90999985    2.91000009
   18.85166740  125.59799957    4.90999985    2.89000010
   18.85583305  132.16099548    4.90999985    2.89000010
   18.85916710  144.52499390    4.90999985    2.89000010
   18.86222267  131.25900269    4.90999985    2.89000010
   18.86555672  136.33000183    4.90999985    2.89000010
   18.86638832  138.46099854    4.90999985    2.89000010
   18.86916733  140.51800537    4.90999985    2.89000010
   18.87249947  132.75799561    4.90999985    2.89000010
   18.87555504  136.22900391    4.90999985    2.89000010
   18.87888908  143.79299927    4.90999985    2.89000010
   18.88194466  140.30200195    4.90999985    2.89000010
   18.88527679  138.24299622    4.90999985    2.89000010
   18.88861084  138.08500671    4.90999985    2.89000010
   18.89472198  138.08500671    4.90999985    2.89000010
   18.89861107  138.15899658    4.90999985    2.89000010
   18.89972115  147.88499451    4.90999985    2.89000010
   18.90250015  138.39300537    4.90999985    2.89000010
   18.90583229  133.24299622    4.90999985    2.89000010
   18.90888786  133.12300110    4.90999985    2.89000010
   18.91222191  143.29100037    4.90999985    2.89000010
   18.91527748  139.70899963    4.90999985    2.89000010
   18.91860962  138.42599487    4.90999985    2.89000010
   18.92194366  140.20599365    4.90999985    2.89000010
   18.92499924  142.00000000    4.90999985    2.86999989
   18.92833328  147.68200684    4.90999985    2.89000010
   18.93166542  142.32499695    4.90999985    2.89000010
   18.93305397  135.78300476    4.90999985    2.89000010
   18.93750000  135.78300476    4.90999985    2.89000010
   18.94166565  145.27400208    4.90999985    2.89000010
   18.94472122  140.24200439    4.90999985    2.86999989
   18.94805527  140.82000732    4.90999985    2.86999989
   18.95138931  143.35099792    4.90999985    2.86999989
   18.95444489  140.13900757    4.90999985    2.86999989
   18.95777893  140.31300354    4.90999985    2.86999989
   18.96083450  137.22300720    4.90999985    2.86999989
   18.96416664  134.30900574    4.90999985    2.86999989
   18.96638870  137.93099976    4.90999985    2.86999989
   18.96777916  137.97700500    4.90999985    2.86999989
   18.97111130  149.83700562    4.90999985    2.86999989
   18.97416687  146.74899292    4.90999985    2.86999989
   18.98027802  146.74899292    4.90999985    2.86999989
   18.98444557  149.40600586    4.90999985    2.86999989
   18.98777771  141.64100647    4.90999985    2.86999989
   18.99083328  140.00399780    4.90999985    2.86999989
   18.99416733  142.13099670    4.90999985    2.86999989
   18.99749947  152.31599426    4.90999985    2.86999989
   18.99972153  145.88600159    4.90999985    2.86999989
   19.00111198  141.43299866    4.90999985    2.86999989
   19.00444412  151.70199585    4.90999985    2.86999989
   19.00749969  139.19999695    4.90999985    2.86999989
   19.01083374  144.16900635    4.90999985    2.86999989
   19.01388931  145.22900391    4.90999985    2.86999989
   19.01722145  139.48699951    4.90999985    2.86999989
   19.02305603  139.48699951    4.90999985    2.86999989
   19.02722168  150.18200684    4.90999985    2.86999989
   19.03055573  147.92799377    4.90999985    2.86999989
   19.03305435  139.53300476    4.90999985    2.86999989
   19.03416634  139.07400513    4.90999985    2.86999989
   19.03750038  134.56700134    4.90999985    2.86999989
   19.04055595  144.22099304    4.90999985    2.86999989
   19.04388809  139.05999756    4.90999985    2.86999989
   19.04694366  142.15899658    4.90999985    2.86999989
   19.05027771  134.21600342    4.90999985    2.86999989
   19.05360985  146.85699463    4.90999985    2.86999989
   19.05666542  139.01800537    4.90999985    2.84999990
   19.05999947  145.84199524    4.90999985    2.86999989
   19.06611061  145.84199524    4.90999985    2.86999989
   19.08444595  140.49800110    4.90999985    2.84999990
   19.08750153  135.75599670    4.90999985    2.86999989
   19.09083366  154.05900574    4.90999985    2.86999989
   19.09416771  144.39799500    4.90999985    2.86999989
   19.09722328  143.13400269    4.90999985    2.86999989
   19.10055542  139.56700134    4.90999985    2.84999990
   19.10361099  131.36599731    4.90999985    2.86999989
   19.10916710  131.36599731    4.90999985    2.84999990
   19.11333466  135.19299316    4.90999985    2.86999989
   19.11638832  145.22900391    4.90999985    2.86999989
   19.11750031  147.57800293    4.90999985    2.86999989
   19.12000084  142.40299988    4.90999985    2.86999989
   19.12333298  142.59800720    4.90999985    2.84999990
   19.12666702  148.50300598    4.90999985    2.86999989
   19.12972260  140.60899353    4.90999985    2.86999989
   19.13305473  137.19200134    4.90999985    2.86999989
   19.13638878  140.33500671    4.90999985    2.86999989
   19.13944435  142.54200745    4.90999985    2.86999989
   19.14277840  135.62500000    4.90999985    2.84999990
   19.14583397  148.13800049    4.90999985    2.84999990
   19.15194321  148.13800049    4.90999985    2.86999989
   19.15611076  140.90800476    4.90999985    2.84999990
   19.15916634  131.22000122    4.90999985    2.84999990
   19.16250038  143.14700317    4.90999985    2.86999989
   19.16583252  144.92100525    4.90999985    2.84999990
   19.16888809  150.09300232    4.90999985    2.84999990
   19.17222214  132.47900391    4.90999985    2.84999990
   19.17555428  146.09399414    4.90999985    2.84999990
   19.17860985  128.42399597    4.90999985    2.84999990
   19.18194389  143.50000000    4.90999985    2.86999989
   19.18416595  126.12899780    4.90999985    2.84999990
   19.18555450  144.05700684    4.90999985    2.84999990
   19.18888855  138.50500488    4.90999985    2.86999989
   19.19472122  138.50500488    4.90999985    2.84999990
   19.19888878  156.38400269    4.90999985    2.84999990
   19.20222282  129.18699646    4.90999985    2.84999990
   19.20527840  136.23100281    4.90999985    2.84999990
   19.20861244  127.54499817    4.90999985    2.84999990
   19.21194458  130.10800171    4.90999985    2.84999990
   19.21500015  136.32899475    4.90999985    2.84999990
   19.21750069  132.92999268    4.90999985    2.84999990
   19.21861076  134.16499329    4.90999985    2.84999990
   19.22194481  141.31500244    4.90999985    2.84999990
   19.22527885  142.29499817    4.90999985    2.84999990
   19.22833443  143.36999512    4.90999985    2.84999990
   19.23166656  140.45399475    4.90999985    2.84999990
   19.23750114  140.45399475    4.90999985    2.84999990
   19.24166679  134.61900330    4.90999985    2.86999989
   19.24500084  125.61900330    4.90999985    2.84999990
   19.24833298  144.73300171    4.90999985    2.84999990
   19.25083351  132.92300415    4.90999985    2.84999990
   19.25166702  127.89099884    4.90999985    2.84999990
   19.25499916  151.10099792    4.90999985    2.82999992
   19.25833321  145.95700073    4.90999985    2.84999990
   19.26138878  137.30900574    4.90999985    2.84999990
   19.26472282  156.83000183    4.90999985    2.84999990
   19.26805496  143.73100281    4.90999985    2.84999990
   19.27111053  149.66000366    4.90999985    2.84999990
   19.27444458  133.73399353    4.90999985    2.86999989
   19.28055573  133.73399353    4.90999985    2.84999990
   19.28472137  141.80700684    4.90999985    2.84999990
   19.28777695  136.93899536    4.90999985    2.84999990
   19.29111099  141.23699951    4.90999985    2.86999989
   19.29416656  143.62399292    4.90999985    2.84999990
   19.29749870  131.92199707    4.90999985    2.86999989
   19.30083275  141.62300110    4.90999985    2.86999989
   19.30388832  142.71899414    4.90999985    2.86999989
   19.30722237  138.83599854    4.90999985    2.82999992
   19.31055450  137.45700073    4.90999985    2.80999994
   19.31361008  142.25000000    4.90999985    2.84999990
   19.31694603  146.92700195    4.90999985    2.84999990
   19.31750107  148.76600647    4.90999985    2.84999990
   19.32333374  148.76600647    4.90999985    2.75000000
   19.32750130  146.13099670    4.90999985    2.86999989
   19.33055687  148.02999878    4.90999985    2.82999992
   19.33388901  159.16000366    4.90999985    2.82999992
   19.33722305  148.78799438    4.90999985    2.82999992
   19.34027863  152.61199951    4.90999985    2.80999994
   19.34361267  145.21400452    4.90999985    2.82999992
   19.34694481  158.16999817    4.90999985    2.86999989
   19.35000038  148.59199524    4.90999985    2.84999990
   19.35083389  146.89199829    4.90999985    2.86999989
   19.35388947  148.96400452    4.90999985    2.67000008
   19.35694504  134.82000732    4.90999985    1.86000001
   19.36027908  151.00900269    4.90999985    2.73000002
   19.36611176  151.00900269    4.90999985    2.75000000
   19.37027740  143.13200378    4.90999985    2.82999992
   19.37361145  156.76600647    4.90999985    2.84999990
   19.37666702  148.10800171    4.90999985    2.84999990
   19.38000107  173.75799561    4.90999985    2.84999990
   19.38333321  162.69799805    4.90999985    2.42000008
   19.38416672  141.54200745    4.90999985    2.82999992
   19.38694382  261.32998657    4.90999985    2.34999990
   19.38999939   -1.00000000    4.90999985    0.67000002
   19.39333344  189.11199951    4.90999985    1.86000001
   19.39638901  175.03700256    4.90999985    2.05999994
   19.39972115  216.22999573    4.90999985    2.67000008
   19.40305519  145.87800598    4.90999985    1.64999998
   19.40888786  145.87800598    4.90999985    2.98000002
   19.41305542   -1.00000000    4.90999985    0.56999999
   19.41638756   -1.00000000    4.90999985    0.17000000
   19.41972160   -1.00000000    4.90999985    0.17000000
   19.42305565   -1.00000000    4.90999985    0.15000001
   19.42611122   -1.00000000    4.90999985    0.15000001
   19.42944336   -1.00000000    4.90999985    0.15000001
   19.43277740   -1.00000000    4.90999985    0.07000000
   19.43583298   -1.00000000    1.64999998    0.03000000
   19.43916512   -1.00000000    2.40000010    0.03000000
   19.44222069   -1.00000000    3.45000005    0.03000000
   19.44555473   -1.00000000    4.11999989    0.03000000
   19.45583344   -1.00000000    4.90999985    0.03000000
   19.45916748   -1.00000000    4.90999985    0.05000000
   19.46222305   -1.00000000    4.90999985    0.07000000
   19.46555710   -1.00000000    4.90999985    0.09000000
   19.46888924   -1.00000000    4.90999985    0.11000000
   19.47194481   -1.00000000    4.90999985    0.15000001
   19.47527885   -1.00000000    4.90999985    0.25000000
   19.47833443   -1.00000000    4.90999985    0.31999999
   19.48166656   -1.00000000    4.90999985    0.44000000
   19.48527718   -1.00000000    4.90999985    0.23000000
   19.48861122   -1.00000000    4.90999985    0.17000000
   19.49861145   -1.00000000    4.90999985    0.05000000
   19.50194359   -1.00000000    4.90999985    0.07000000
   19.50527763   -1.00000000    4.90999985    0.09000000
   19.50833321   -1.00000000    4.90999985    0.13000000
   19.51166725   -1.00000000    4.90999985    0.13000000
   19.51499939   -1.00000000    4.90999985    0.83999997
   19.51749992  158.93299866    4.90999985    1.13000000
   19.51833344  177.17999268    4.90999985    1.48000002
   19.52166557  164.14199829    4.90999985    2.75000000
   19.52499962  165.89599609    4.90999985    2.82999992
   19.52833366  161.99000549    4.90999985    2.84999990
   19.53138924  162.30900574    4.90999985    2.84999990
   19.53750038  162.30900574    4.90999985    2.82999992
   19.54166603  151.31199646    4.90999985    2.82999992
   19.54500008  150.93800354    4.90999985    2.80999994
   19.54805565  142.27600098    4.90999985    2.80999994
   19.55083275  152.39900208    4.90999985    2.80999994
   19.55166626  138.73399353    4.90999985    2.82999992
   19.55499840  151.23300171    4.90999985    2.82999992
   19.55833244  153.72700500    4.90999985    2.82999992
   19.56138802  151.67799377    4.90999985    2.82999992
   19.56472206  153.22799683    4.90999985    2.82999992
   19.56805611  141.88699341    4.90999985    2.80999994
   19.57111168  136.85899353    4.90999985    2.80999994
   19.57444572  153.23599243    4.90999985    2.80999994
   19.58027840  153.23599243    4.90999985    2.80999994
   19.58444595  156.85400391    4.90999985    2.80999994
   19.58777809  157.27699280    4.90999985    2.80999994
   19.59083366  144.99699402    4.90999985    2.80999994
   19.59416771  149.21800232    4.90999985    2.80999994
   19.59749985  150.99200439    4.90999985    2.80999994
   19.60055542  152.80700684    4.90999985    2.80999994
   19.60388947  153.50399780    4.90999985    2.80999994
   19.60722351  141.32800293    4.90999985    2.80999994
   19.61027908  154.15100098    4.90999985    2.80999994
   19.61361122  160.22700500    4.90999985    2.80999994
   19.61666679  144.90600586    4.90999985    2.76999998
   19.61750031  142.30499268    4.90999985    2.75000000
   19.62333298  142.30499268    4.90999985    2.80999994
   19.62722206  166.49299622    4.90999985    2.78999996
   19.63055611  151.58099365    4.90999985    2.80999994
   19.63388824  150.48699951    4.90999985    2.80999994
   19.63694382  155.17999268    4.90999985    2.80999994
   19.64027786  153.12500000    4.90999985    2.80999994
   19.64361191  144.97599792    4.90999985    2.80999994
   19.64666748  145.94999695    4.90999985    2.80999994
   19.64999962  148.14599609    4.90999985    2.78999996
   19.65083313  157.28900146    4.90999985    2.80999994
   19.65361023  146.88800049    4.90999985    2.80999994
   19.65666580  145.40199280    4.90999985    2.78999996
   19.65999985  148.60200500    4.90999985    2.80999994
   19.66611099  148.60200500    4.90999985    2.78999996
   19.67027664  149.55799866    4.90999985    2.80999994
   19.67333221  149.80400085    4.90999985    2.78999996
   19.67666626  143.98399353    4.90999985    2.80999994
   19.68000031  152.33599854    4.90999985    2.80999994
   19.68305397  149.44099426    4.90999985    2.80999994
   19.68416595  157.54800415    4.90999985    2.78999996
   19.68694305  148.27999878    4.90999985    2.78999996
   19.68999863  145.52499390    4.90999985    2.80999994
   19.69333267  149.41900635    4.90999985    2.78999996
   19.69666672  155.95399475    4.90999985    2.78999996
   19.69972038  148.40699768    4.90999985    2.80999994
   19.70305634  155.48500061    4.90999985    2.80999994
   19.70888901  155.48500061    4.90999985    2.78999996
   19.71305656  147.73100281    4.90999985    2.78999996
   19.71638870  141.63800049    4.90999985    2.80999994
   19.71750069  143.41700745    4.90999985    2.78999996
   19.72000122  153.06500244    4.90999985    2.78999996
   19.72305679  143.59800720    4.90999985    2.78999996
   19.72638893  142.83000183    4.90999985    2.78999996
   19.72972298  154.71600342    4.90999985    2.78999996
   19.73277855  143.65100098    4.90999985    2.78999996
   19.73611069  147.51100159    4.90999985    2.78999996
   19.73916626  153.05000305    4.90999985    2.78999996
   19.74250031  142.59700012    4.90999985    2.78999996
   19.74583435  144.20500183    4.90999985    2.78999996
   19.75166702  144.20500183    4.90999985    2.78999996
   19.75583267  149.75700378    4.90999985    2.78999996
   19.75916672  158.73500061    4.90999985    2.78999996
   19.76222229  142.65199280    4.90999985    2.78999996
   19.76555634  133.61399841    4.90999985    2.78999996
   19.76888847  146.12199402    4.90999985    2.78999996
   19.77194405  142.41799927    4.90999985    2.78999996
   19.77527809  137.94999695    4.90999985    2.78999996
   19.77861023  135.76300049    4.90999985    2.78999996
   19.78166580  151.98300171    4.90999985    2.78999996
   19.78416634  136.83500671    4.90999985    2.78999996
   19.78555489  141.78300476    4.90999985    2.78999996
   19.78861046  151.95500183    4.90999985    2.76999998
   19.79472160  151.95500183    4.90999985    2.76999998
   19.79861069  138.09599304    4.90999985    2.78999996
   19.80194283  145.30799866    4.90999985    2.78999996
   19.80527687  149.97099304    4.90999985    2.76999998
   19.80833244  144.19000244    4.90999985    2.78999996
   19.81166649  141.94099426    4.90999985    2.78999996
   19.81499863  131.97999573    4.90999985    2.76999998
   19.81750107  133.61099243    4.90999985    2.76999998
   19.81861115  130.66600037    4.90999985    2.76999998
   19.82166672  134.18499756    4.90999985    2.76999998
   19.82500076  150.38999939    4.90999985    2.76999998
   19.82833481  134.17900085    4.90999985    2.78999996
   19.83139038  134.40899658    4.90999985    2.78999996
   19.83750153  134.40899658    4.90999985    2.78999996
   19.84166718  146.90800476    4.90999985    2.76999998
   19.84472275  153.82099915    4.90999985    2.78999996
   19.84805679  143.99299622    4.90999985    2.78999996
   19.85083389  133.16200256    4.90999985    2.76999998
   19.85166740  150.45700073    4.90999985    2.78999996
   19.85472298  146.33399963    4.90999985    2.76999998
   19.85805511  159.74899292    4.90999985    2.78999996
   19.86138916  152.38400269    4.90999985    2.78999996
   19.86444473  151.00599670    4.90999985    2.80999994
   19.86777878  141.94400024    4.90999985    2.80999994
   19.87083435  154.82600403    4.90999985    2.82999992
   19.87416649  139.08999634    4.90999985    2.30999994
   19.88027763  139.08999634    4.90999985    2.82999992
   19.88444519  135.25100708    4.90999985    2.82999992
   19.88777733  140.62899780    4.90999985    2.80999994
   19.89083290  151.07400513    4.90999985    2.76999998
   19.89416695  154.17599487    4.90999985    2.78999996
   19.89722252  147.66400146    4.90999985    2.78999996
   19.90055466  159.38600159    4.90999985    2.78999996
   19.90388870  147.17700195    4.90999985    2.78999996
   19.90694427  142.40199280    4.90999985    2.78999996
   19.91027832  132.58200073    4.90999985    2.78999996
   19.91361046  146.81599426    4.90999985    2.78999996
   19.91666603  144.34100342    4.90999985    2.78999996
   19.91749954  147.03900146    4.90999985    2.76999998
   19.92305565  147.03900146    4.90999985    2.76999998
   19.92722130  151.02900696    4.90999985    2.78999996
   19.93055534  126.48899841    4.90999985    2.78999996
   19.93361092  144.86199951    4.90999985    2.76999998
   19.93694305  131.15499878    4.90999985    2.78999996
   19.94027710  140.79100037    4.90999985    2.78999996
   19.94333267  138.01699829    4.90999985    2.76999998
   19.94666672  151.10499573    4.90999985    2.76999998
   19.94972038  148.84199524    4.90999985    2.78999996
   19.95083427  142.86000061    4.90999985    2.78999996
   19.95361137  140.24699402    4.90999985    2.78999996
   19.95666695  150.51899719    4.90999985    2.78999996
   19.96000099  136.17799377    4.90999985    2.78999996
   19.96583366  136.17799377    4.90999985    2.78999996
   19.97000122  141.22799683    4.90999985    2.07999992
   19.97333336  163.86700439    4.90999985    2.66000009
   19.97666740  150.46499634    4.90999985    2.46000004
   19.97972298  137.64100647    4.90999985    2.82999992
   19.98305511  147.24899292    4.90999985    2.76999998
   19.98416710  141.78900146    4.90999985    2.78999996
   19.98666763  155.53700256    4.90999985    2.80999994
   19.98972321  136.80900574    4.90999985    2.80999994
   19.99305534  139.69200134    4.90999985    2.78999996
   19.99638939  137.81799316    4.90999985    2.78999996
   19.99944496  154.65899658    4.90999985    2.78999996
   20.00277710  152.82600403    4.90999985    2.78999996
   20.00888824  152.82600403    4.90999985    2.76999998
   20.01305580  159.40400696    4.90999985    2.76999998
   20.01611137  155.70899963    4.90999985    2.76999998
   20.01749992  148.71099854    4.90999985    2.76999998
   20.02000046  151.15899658    4.90999985    2.76999998
   20.02305603  146.79499817    4.90999985    2.76999998
   20.02638817  151.18400574    4.90999985    2.76999998
   20.02972221  150.91200256    4.90999985    2.76999998
   20.03277779  159.93699646    4.90999985    2.76999998
   20.03610992  154.12500000    4.90999985    2.76999998
   20.03944397  147.04800415    4.90999985    2.76999998
   20.04249954  141.04899597    4.90999985    2.75000000
   20.04583359  148.50399780    4.90999985    2.76999998
   20.05166626  148.50399780    4.90999985    2.76999998
   20.05583191  150.68699646    4.90999985    2.76999998
   20.05888748  142.05000305    4.90999985    2.76999998
   20.06222153  145.08399963    4.90999985    2.76999998
   20.06555557  147.65600586    4.90999985    2.75000000
   20.06861115  143.95500183    4.90999985    2.75000000
   20.07194519  150.06300354    4.90999985    2.75000000
   20.07527924  144.90100098    4.90999985    2.75000000
   20.07833481  139.16900635    4.90999985    2.75000000
   20.08166695  162.22700500    4.90999985    2.75000000
   20.08416748  144.21400452    4.90999985    2.75000000
   20.10472298  144.21400452    4.90999985    2.75000000
   20.10888863  145.80400085    4.90999985    2.75000000
   20.11222267  143.54400635    4.90999985    2.75000000
   20.11555672  141.30099487    4.90999985    2.75000000
   20.11750031  134.23500061    4.90999985    2.75000000
   20.11916733  135.30099487    4.90999985    2.75000000
   20.12249947  130.72300720    4.90999985    2.75000000
   20.12555504  145.03599548    4.90999985    2.75000000
   20.12888908  146.16999817    4.90999985    2.75000000
   20.13222313  150.21099854    4.90999985    2.75000000
   20.13527679  154.02799988    4.90999985    2.75000000
   20.13861084  143.40499878    4.90999985    2.75000000
   20.14166641  141.20199585    4.90999985    2.75000000
   20.14749908  141.20199585    4.90999985    2.75000000
   20.15166664  138.61099243    4.90999985    2.73000002
   20.15499878  142.32499695    4.90999985    2.73000002
   20.15805435  140.49800110    4.90999985    2.73000002
   20.16138840  144.20899963    4.90999985    2.75000000
   20.16472244  157.75399780    4.90999985    2.75000000
   20.16777802  144.90800476    4.90999985    2.75000000
   20.17111015  142.11300659    4.90999985    2.73000002
   20.17444420  142.07600403    4.90999985    2.73000002
   20.17749977  142.49299622    4.90999985    2.73000002
   20.18083191  149.72900391    4.90999985    2.73000002
   20.18388748  145.96299744    4.90999985    2.73000002
   20.18444443  150.15299988    4.90999985    2.73000002
   20.19055557  150.15299988    4.90999985    2.73000002
   20.19444275  149.72300720    4.90999985    2.73000002
   20.19777679  147.74600220    4.90999985    2.73000002
   20.20111275  137.31199646    4.90999985    2.73000002
   20.20416832  145.27299500    4.90999985    2.73000002
   20.20750046  147.37100220    4.90999985    2.73000002
   20.21055603  140.55000305    4.90999985    2.73000002
   20.21389008  137.99099731    4.90999985    2.73000002
   20.21722221  150.63000488    4.90999985    2.73000002
   20.21777916  138.52699280    4.90999985    2.73000002
   20.22083473  149.96200562    4.90999985    2.71000004
   20.22416687  136.91999817    4.90999985    2.71000004
   20.22722244  139.13600159    4.90999985    2.71000004
   20.23333359  139.13600159    4.90999985    2.71000004
   20.23750114  141.54100037    4.90999985    2.73000002
   20.24055672  144.60099792    4.90999985    2.73000002
   20.24388885  143.90100098    4.90999985    2.73000002
   20.24694443  136.44700623    4.90999985    2.71000004
   20.25027847  136.35600281    4.90999985    2.71000004
   20.25111198  139.60699463    4.90999985    2.71000004
   20.25388908  132.75000000    4.90999985    2.71000004
   20.25722313  134.97300720    4.90999985    2.73000002
   20.26027870  140.55900574    4.90999985    2.71000004
   20.26361084  140.12699890    4.90999985    2.73000002
   20.26666641  137.75199890    4.90999985    2.71000004
   20.27000046  136.27200317    4.90999985    2.71000004
   20.27611160  136.27200317    4.90999985    2.71000004
   20.28027725  133.20399475    4.90999985    2.71000004
   20.28333282  139.93400574    4.90999985    2.71000004
   20.28444481  133.18299866    4.90999985    2.71000004
   20.28722191  142.98800659    4.90999985    2.71000004
   20.29055595  137.05999756    4.90999985    2.69000006
   20.29361153  133.58399963    4.90999985    2.71000004
   20.29694366  135.66600037    4.90999985    2.71000004
   20.29999924  129.31700134    4.90999985    2.71000004
   20.30333328  131.98100281    4.90999985    2.71000004
   20.30666542  133.24000549    4.90999985    2.71000004
   20.30972099  130.95300293    4.90999985    2.71000004
   20.31305504  130.40400696    4.90999985    2.71000004
   20.31888962  130.40400696    4.90999985    2.71000004
   20.32305717  139.76400757    4.90999985    2.71000004
   20.32638931  139.02900696    4.90999985    2.71000004
   20.32944489  135.30900574    4.90999985    2.71000004
   20.33277893  135.67700195    4.90999985    2.71000004
   20.33611107  138.36300659    4.90999985    2.71000004
   20.33916664  132.40800476    4.90999985    2.71000004
   20.34250069  132.05499268    4.90999985    2.71000004
   20.34555626  145.60400391    4.90999985    2.71000004
   20.34889030  146.07099915    4.90999985    2.71000004
   20.35111237  138.71200562    4.90999985    2.71000004
   20.35250092  141.08700562    4.90999985    2.71000004
   20.35583305  144.53599548    4.90999985    2.71000004
   20.36194420  144.53599548    4.90999985    2.69000006
   20.36583328  148.47500610    4.90999985    2.69000006
   20.36916733  144.18400574    4.90999985    2.69000006
   20.37249947  134.59399414    4.90999985    2.71000004
   20.37555504  139.87800598    4.90999985    2.71000004
   20.37888908  151.25199890    4.90999985    2.69000006
   20.38222313  143.48599243    4.90999985    2.71000004
   20.38444519  135.58799744    4.90999985    2.71000004
   20.38583374  137.12800598    4.90999985    2.69000006
   20.38916588  144.78100586    4.90999985    2.69000006
   20.39222145  141.63200378    4.90999985    2.69000006
   20.39555550  136.92399597    4.90999985    2.69000006
   20.39888954  138.55200195    4.90999985    2.69000006
   20.40472221  138.55200195    4.90999985    2.69000006
   20.40888786  136.78900146    4.90999985    2.69000006
   20.41194344  138.79699707    4.90999985    2.69000006
   20.41527748  129.64300537    4.90999985    2.71000004
   20.41777802  132.99000549    4.90999985    2.69000006
   20.41888809  130.91600037    4.90999985    2.71000004
   20.42222214  140.12199402    4.90999985    2.71000004
   20.42527771  134.95199585    4.90999985    2.69000006
   20.42860985  147.10699463    4.90999985    2.69000006
   20.43194389  135.07899475    4.90999985    2.69000006
   20.43499947  148.33200073    4.90999985    2.71000004
   20.43833160  146.02900696    4.90999985    2.67000008
   20.44138718  143.49699402    4.90999985    2.69000006
   20.44749832  143.49699402    4.90999985    2.69000006
   20.45166779  127.16600037    4.90999985    2.69000006
   20.45472336  134.60800171    4.90999985    2.67000008
   20.45805550  136.79400635    4.90999985    2.69000006
   20.46138954  140.13800049    4.90999985    2.69000006
   20.46444511  133.75700378    4.90999985    2.67000008
   20.46777916  131.58500671    4.90999985    2.67000008
   20.47111130  129.05099487    4.90999985    2.67000008
   20.47416687  136.06300354    4.90999985    2.69000006
   20.47750092  136.60800171    4.90999985    2.67000008
   20.48055649  131.16400146    4.90999985    2.67000008
   20.48388863  128.74499512    4.90999985    2.69000006
   20.48444557  125.65699768    4.90999985    2.69000006
   20.49027824  125.65699768    4.90999985    2.67000008
   20.49444389  137.88800049    4.90999985    2.67000008
   20.49777794  130.70500183    4.90999985    2.69000006
   20.50083351  133.06100464    4.90999985    2.67000008
   20.50416756  135.17100525    4.90999985    2.67000008
   20.50749969  136.52000427    4.90999985    2.67000008
   20.51055527  135.84500122    4.90999985    2.67000008
   20.51388931  130.64399719    4.90999985    2.67000008
   20.51694489  138.91700745    4.90999985    2.67000008
   20.51777840  135.32600403    4.90999985    2.67000008
   20.52055550  128.64199829    4.90999985    2.67000008
   20.52388954  134.83500671    4.90999985    2.67000008
   20.52694511  143.96800232    4.90999985    2.67000008
   20.53333282  143.96800232    4.90999985    2.66000009
   20.53722191  140.26899719    4.90999985    2.67000008
   20.54055595  146.09199524    4.90999985    2.66000009
   20.54388809  145.14399719    4.90999985    2.67000008
   20.54694366  146.31399536    4.90999985    2.67000008
   20.55027771  145.96200562    4.90999985    2.67000008
   20.55111122  139.87399292    4.90999985    2.67000008
   20.55388832  140.23699951    4.90999985    2.67000008
   20.55722237  139.17100525    4.90999985    2.67000008
   20.56027794  139.97900391    4.90999985    2.67000008
   20.56361008  124.82800293    4.90999985    2.67000008
   20.56694603  129.90499878    4.90999985    2.67000008
   20.57000160  136.23100281    4.90999985    2.66000009
   20.57611275  136.23100281    4.90999985    2.66000009
   20.58027840  134.27600098    4.90999985    2.66000009
   20.58333397  137.73399353    4.90999985    2.67000008
   20.58444595  130.89300537    4.90999985    2.67000008
   20.58694458  138.28500366    4.90999985    2.67000008
   20.59027863  142.22700500    4.90999985    2.66000009
   20.59333420  136.81799316    4.90999985    2.67000008
   20.59666824  134.40899658    4.90999985    2.66000009
   20.60000038  138.14999390    4.90999985    2.67000008
   20.60305595  137.05799866    4.90999985    2.66000009
   20.60639000  139.19599915    4.90999985    2.67000008
   20.60944557  142.91099548    4.90999985    2.66000009
   20.61277771  144.14599609    4.90999985    2.66000009
   20.61888885  144.14599609    4.90999985    2.67000008
   20.62305641  134.94099426    4.90999985    2.67000008
   20.62611198  131.96000671    4.90999985    2.67000008
   20.62944412  134.43499756    4.90999985    2.66000009
   20.63277817  142.07800293    4.90999985    2.66000009
   20.63583374  132.60499573    4.90999985    2.66000009
   20.63916588  138.74600220    4.90999985    2.66000009
   20.64249992  134.50599670    4.90999985    2.66000009
   20.64555550  141.02600098    4.90999985    2.66000009
   20.64888954  135.26600647    4.90999985    2.66000009
   20.65111160  134.28999329    4.90999985    2.66000009
   20.65250015  127.93699646    4.90999985    2.66000009
   20.65583229  133.77699280    4.90999985    2.66000009
   20.66166687  133.77699280    4.90999985    2.67000008
   20.66583252  133.00900269    4.90999985    2.67000008
   20.66916656  120.84899902    4.90999985    2.66000009
   20.67222214  134.07499695    4.90999985    2.66000009
   20.67555428  131.15600586    4.90999985    2.66000009
   20.67888832  127.68599701    4.90999985    2.66000009
   20.68194389  127.56700134    4.90999985    2.66000009
   20.68472099  132.28900146    4.90999985    2.66000009
   20.68555450  130.73699951    4.90999985    2.66000009
   20.68888855  133.99299622    4.90999985    2.66000009
   20.69194412  136.79200745    4.90999985    2.66000009
   20.69527626  119.82800293    4.90999985    2.66000009
