    HOUR (UT)   FLARE FACTOR    SKY TESTER    SUN TESTER
   11.19472218   -1.00000000   -1.00000000   -1.00000000
   11.27777767   -1.00000000    0.00000000    0.00000000
   11.28083324   -1.00000000    0.00000000    0.00000000
   11.28416729   -1.00000000    0.00000000    0.00000000
   11.28750038   -1.00000000    0.00000000    0.00000000
   11.29055595   -1.00000000    0.00000000    0.00000000
   11.29888916   -1.00000000    0.00000000    0.00000000
   11.30194473   -1.00000000    0.00000000    0.00000000
   11.30527782   -1.00000000    0.00000000    0.00000000
   11.30888939   -1.00000000    0.00000000    0.00000000
   11.31194496   -1.00000000    0.00000000    0.00000000
   11.31527805   -1.00000000    0.00000000    0.00000000
   12.37555599  130.86300659    0.00000000    0.00000000
   12.37888908  139.14900208    0.00000000    0.00000000
   12.38194466  130.17900085    0.00000000    0.00000000
   12.38527775  122.09799957    0.00000000    0.00000000
   12.38861084  135.25900269    0.00000000    0.00000000
   12.39166641  124.75700378    0.00000000    0.00000000
   12.39583302  124.75700378    0.00000000    0.00000000
   12.39999962  128.22999573    0.79000002    0.05000000
   12.40333271  122.22899628    0.79000002    0.05000000
   12.40638828  124.23000336    0.79000002    0.05000000
   12.40888882  129.15299988    0.79000002    0.05000000
   12.41027737  132.72500610    0.79000002    0.05000000
   12.41333294  127.26499939    0.79000002    0.05000000
   12.41666698  127.13600159    0.79000002    0.05000000
   12.42000008  131.13499451    0.79000002    0.05000000
   12.42305565  123.13600159    0.79000002    0.05000000
   12.42638874  143.83500671    0.79000002    0.05000000
   12.42944431  126.39499664    0.79000002    0.05000000
   12.43277836  125.90399933    0.79000002    0.05000000
   12.43861103  125.90399933    0.79000002    0.05000000
   12.44277763  130.44999695    0.79000002    0.05000000
   12.44611073  123.98799896    0.79000002    0.05000000
   12.44944477  122.26899719    0.79000002    0.05000000
   12.45249939  132.52299500    0.79000002    0.05000000
   12.45583344  131.96499634    0.79000002    0.05000000
   12.45888901  128.49200439    0.79000002    0.05000000
   12.46222210  139.74099731    0.79000002    0.05000000
   12.46555519  128.70799255    0.79000002    0.05000000
   12.46861076  125.69400024    0.79000002    0.05000000
   12.47194386  124.47599792    0.79000002    0.05000000
   12.47527695  134.45300293    0.79000002    0.05000000
   12.47555542  139.96600342    0.79000002    0.05000000
   12.48166656  139.96600342    0.79000002    0.05000000
   12.48583317  140.61099243    0.79000002    0.05000000
   12.48888874  139.41799927    0.79000002    0.05000000
   12.49222279  146.00999451    0.79000002    0.05000000
   12.49527836  140.54600525    0.79000002    0.05000000
   12.49861145  141.97300720    0.79000002    0.05000000
   12.50194454  134.82299805    0.79000002    0.05000000
   12.50500011  123.76399994    0.79000002    0.05000000
   12.50833321  126.25900269    0.79000002    0.05000000
   12.50888920  127.34500122    0.79000002    0.05000000
   12.51194477  134.24600220    0.79000002    0.05000000
   12.51527786  143.16299438    0.79000002    0.05000000
   12.51833344  122.33699799    0.79000002    0.05000000
   12.52444458  122.33699799    0.79000002    0.05000000
   12.52861118  131.67799377    0.79000002    0.05000000
   12.53166676  129.44700623    0.79000002    0.05000000
   12.53500080  125.20600128    0.79000002    0.05000000
   12.53833389  138.21899414    0.79000002    0.05000000
   12.54138947  141.08000183    0.79000002    0.05000000
   12.54250050  122.14800262    0.79000002    0.05000000
   12.54500008  118.73500061    0.79000002    0.05000000
   12.54833412  131.20599365    0.79000002    0.05000000
   12.55138874  122.59999847    0.79000002    0.05000000
   12.55472279  126.71399689    0.79000002    0.05000000
   12.55805588  132.52499390    0.79000002    0.05000000
   12.56111145  141.88999939    0.79000002    0.05000000
   12.56722260  141.88999939    0.79000002    0.05000000
   12.57138920  131.68099976    0.79000002    0.05000000
   12.57472229  145.49400330    0.79000002    0.05000000
   12.57583332  138.61799622    0.79000002    0.05000000
   12.57833290  132.72799683    0.79000002    0.05000000
   12.58166695  131.31500244    0.79000002    0.05000000
   12.58472157  126.64299774    0.79000002    0.05000000
   12.58805561  125.93000031    0.79000002    0.05000000
   12.59138870  144.04800415    0.79000002    0.05000000
   12.59444427  123.46800232    0.79000002    0.05000000
   12.59777737  131.35400391    0.79000002    0.05000000
   12.60111141  129.56100464    0.79000002    0.05000000
   12.60416698  121.58499908    0.79000002    0.05000000
   12.61000061  121.58499908    0.79000002    0.05000000
   12.61416721  127.75000000    0.79000002    0.05000000
   12.61750031  129.75599670    0.79000002    0.05000000
   12.62083340  126.69100189    0.79000002    0.05000000
   12.62388897  127.39499664    0.79000002    0.05000000
   12.62722206  123.82099915    0.79000002    0.05000000
   12.63055611  129.30099487    0.79000002    0.05000000
   12.63361073  152.32299805    0.79000002    0.05000000
   12.63694477  131.41200256    0.79000002    0.05000000
   12.64000034  134.80000305    0.79000002    0.05000000
   12.64249992  138.04200745    0.79000002    0.05000000
   12.64361095  136.20100403    0.79000002    0.05000000
   12.64694405  144.78900146    0.79000002    0.05000000
   12.65305519  144.78900146    0.79000002    0.05000000
   12.65722179  125.76399994    0.79000002    0.05000000
   12.66027737  121.58399963    0.79000002    0.05000000
   12.66361046  116.32399750    0.79000002    0.05000000
   12.66666698  130.30000305    0.79000002    0.05000000
   12.67000008  118.26699829    0.79000002    0.05000000
   12.67333412  132.75799561    0.79000002    0.05000000
   12.67583370  135.26300049    0.79000002    0.05000000
   12.67694473  135.23500061    0.79000002    0.05000000
   12.68027782  116.22200012    0.79000002    0.05000000
   12.68361092  120.00499725    0.79000002    0.05000000
   12.68666649  129.68699646    0.79000002    0.05000000
   12.69000053  140.39999390    0.79000002    0.05000000
   12.69583321  140.39999390    0.79000002    0.05000000
   12.69999981  134.30900574    0.79000002    0.05000000
   12.70305538  140.03799438    0.79000002    0.05000000
   12.70638847  134.79400635    0.79000002    0.05000000
   12.70916653  134.30799866    0.79000002    0.05000000
   12.71000004  136.42599487    0.79000002    0.05000000
   12.71333313  125.17900085    0.79000002    0.05000000
   12.71666622  138.96699524    0.79000002    0.05000000
   12.71972179  146.24899292    0.79000002    0.05000000
   12.72305489  128.41200256    0.79000002    0.05000000
   12.72638798  129.89399719    0.79000002    0.05000000
   12.72944355  139.13800049    0.79000002    0.05000000
   12.73277760  129.40400696    0.79000002    0.05000000
   12.73861122  129.40400696    0.79000002    0.05000000
   12.74277782  140.66900635    0.79000002    0.05000000
   12.74611092  128.56399536    0.79000002    0.05000000
   12.74916649  139.75700378    0.79000002    0.05000000
   12.75249958  151.33099365    0.79000002    0.05000000
   12.75583363  153.66700745    0.79000002    0.05000000
   12.75888920  127.51100159    0.79000002    0.05000000
   12.76222229  144.12100220    0.79000002    0.05000000
   12.76527786  128.30799866    0.79000002    0.05000000
   12.76861095  132.00199890    0.79000002    0.05000000
   12.77194405  129.71200562    0.79000002    0.05000000
   12.77499962  144.23800659    0.79000002    0.05000000
   12.77583313  157.40899658    0.79000002    0.05000000
   12.78138828  157.40899658    0.79000002    0.05000000
   12.78555584  136.62800598    0.79000002    0.05000000
   12.78888893  156.11700439    0.79000002    0.05000000
   12.79222298  142.97099304    0.79000002    0.05000000
   12.79527855  151.44500732    0.79000002    0.05000000
   12.79861164  152.97300720    0.79000002    0.05000000
   12.80194473  163.36399841    0.79000002    0.05000000
   12.80500031  166.89399719    0.79000002    0.05000000
   12.80833340  156.46000671    0.79000002    0.05000000
   12.80916691  159.65400696    0.79000002    0.05000000
   12.81194496  166.56900024    0.79000002    0.05000000
   12.81527805  149.24600220    0.79000002    0.05000000
   12.81861115  158.39999390    0.79000002    0.05000000
   12.82444477  158.39999390    0.79000002    0.05000000
   12.82861137  164.22700500    0.79000002    0.05000000
   12.83166695  135.02999878    0.79000002    0.05000000
   12.83500004  158.47900391    0.79000002    0.05000000
   12.83805561  149.01899719    0.79000002    0.05000000
   12.84138870  153.18899536    0.79000002    0.05000000
   12.84249973  149.86999512    0.79000002    0.05000000
   12.84499931  159.05400085    0.79000002    0.05000000
   12.84833336  150.92799377    0.79000002    0.05000000
   12.85166740  159.70599365    0.79000002    0.05000000
   12.85472298  160.92300415    0.79000002    0.05000000
   12.85805607  169.64399719    0.79000002    0.05000000
   12.86111164  188.94799805    0.79000002    0.05000000
   12.86722279  188.94799805    0.79000002    0.05000000
   12.87138939  163.85200500    0.79000002    0.05000000
   12.87444496  156.88400269    0.79000002    0.05000000
   12.87583351  151.32499695    0.79000002    0.05000000
   12.87805557  159.06100464    0.79000002    0.05000000
   12.88138866  143.49200439    0.79000002    0.05000000
   12.88472176  133.91000366    0.79000002    0.05000000
   12.88777733  154.31100464    0.79000002    0.05000000
   12.89111137  155.79299927    0.79000002    0.05000000
   12.89416695  142.96699524    0.79000002    0.05000000
   12.89750004  171.74600220    0.79000002    0.05000000
   12.90083313  140.82899475    0.79000002    0.05000000
   12.90388870  176.38400269    0.79000002    0.05000000
   12.90999985  176.38400269    0.79000002    0.05000000
   12.91416645  160.81199646    0.79000002    0.05000000
   12.91750050  166.95100403    0.79000002    0.05000000
   12.92055607  175.13200378    0.79000002    0.05000000
   12.92388916  180.12600708    0.79000002    0.05000000
   12.92694473  172.74699402    0.79000002    0.05000000
   12.93027782  179.17399597    0.79000002    0.05000000
   12.93361092  164.77299500    0.79000002    0.05000000
   12.93666649  157.72300720    0.79000002    0.05000000
   12.94000053  158.03500366    0.79000002    0.05000000
   12.94250011  166.21899414    0.79000002    0.05000000
   12.94361115  165.94200134    0.79000002    0.05000000
   12.94694424  156.47799683    0.79000002    0.05000000
   12.95277786  156.47799683    0.79000002    0.05000000
   12.95694447  151.73800659    0.79000002    0.05000000
   12.96027756  177.56300354    0.79000002    0.05000000
   12.96333313  144.17599487    0.79000002    0.05000000
   12.96666622  152.00500488    0.79000002    0.05000000
   12.96999931  155.39599609    0.79000002    0.05000000
   12.97305489  165.74000549    0.79000002    0.05000000
   12.97583294  157.02400208    0.79000002    0.05000000
   12.97666645  165.05599976    0.79000002    0.05000000
   12.97999954  139.86399841    0.79000002    0.05000000
   12.98333359  140.61599731    0.79000002    0.05000000
   12.98638916  146.54699707    0.79000002    0.05000000
   12.98972225  151.02999878    0.79000002    0.05000000
   12.99583340  151.02999878    0.79000002    0.05000000
   12.99972248  150.82600403    0.79000002    0.05000000
   13.00305557  142.58700562    0.79000002    0.05000000
   13.00638866  161.08200073    0.79000002    0.05000000
   13.00916672  161.40299988    0.79000002    0.05000000
   13.00972176  147.37399292    0.79000002    0.05000000
   13.01305580  166.06700134    0.79000002    0.05000000
   13.01638889  157.64300537    0.79000002    0.05000000
   13.01944447  150.63800049    0.79000002    0.05000000
   13.02277756  154.95599365    0.79000002    0.05000000
   13.02583313  148.38800049    0.79000002    0.05000000
   13.02916622  153.32699585    0.79000002    0.05000000
   13.03249931  151.26199341    0.79000002    0.05000000
   13.03861141  151.26199341    0.79000002    0.05000000
   13.04277802  137.63499451    0.79000002    0.05000000
   13.04583359  146.86099243    0.79000002    0.05000000
   13.04916668  139.86500549    0.79000002    0.05000000
   13.05249977  151.55700684    0.79000002    0.05000000
   13.05555534  150.03500366    0.79000002    0.05000000
   13.05888939  150.96699524    0.79000002    0.05000000
   13.06222248  144.09300232    0.79000002    0.05000000
   13.06527805  151.47500610    0.79000002    0.05000000
   13.06861115  140.27000427    0.79000002    0.05000000
   13.07166672  138.49299622    0.79000002    0.05000000
   13.07499981  150.56300354    0.79000002    0.05000000
   13.07583332  144.34700012    0.79000002    0.05000000
   13.08138847  144.34700012    0.79000002    0.05000000
   13.08555508  126.68499756    0.79000002    0.05000000
   13.08888817  135.75500488    0.79000002    0.05000000
   13.09194374  141.50300598    0.79000002    0.05000000
   13.09527779  126.30400085    0.79000002    0.05000000
   13.09861088  128.67999268    0.79000002    0.05000000
   13.10166740  130.44400024    0.79000002    0.05000000
   13.10500050  131.96600342    0.79000002    0.05000000
   13.10805607  133.36300659    0.79000002    0.05000000
   13.10916710  133.75000000    0.79000002    0.05000000
   13.11166668  124.30000305    0.79000002    0.05000000
   13.11500072  116.71199799    0.79000002    0.05000000
   13.11833382  132.26899719    0.79000002    0.05000000
   13.12416649  132.26899719    0.79000002    0.05000000
   13.12833309  138.07899475    0.79000002    0.05000000
   13.13166714  134.77099609    0.79000002    0.05000000
   13.13472176  122.77200317    0.79000002    0.05000000
   13.13805580  138.27999878    0.79000002    0.05000000
   13.14138889  130.16799927    0.79000002    0.05000000
   13.14249992  117.36900330    0.79000002    0.05000000
   13.14472198  136.25500488    0.79000002    0.05000000
   13.14805508  129.45199585    0.79000002    0.05000000
   13.15138817  125.47200012    0.79000002    0.05000000
   13.15444374  138.30700684    0.79000002    0.05000000
   13.15777779  130.94200134    0.79000002    0.05000000
   13.16111088  148.29899597    0.79000002    0.05000000
   13.16722298  148.29899597    0.79000002    0.05000000
   13.17111111  151.96200562    0.79000002    0.05000000
   13.17444515  151.64799500    0.79000002    0.05000000
   13.17583370  148.41900635    0.79000002    0.05000000
   13.17805576  151.33000183    0.79000002    0.05000000
   13.18138885  131.24600220    0.79000002    0.05000000
   13.18472195  139.78700256    0.79000002    0.05000000
   13.18777752  140.05099487    0.79000002    0.05000000
   13.19111156  132.57000732    0.79000002    0.05000000
   13.19444466  135.86099243    0.79000002    0.05000000
   13.19750023  130.30400085    0.79000002    0.05000000
   13.20083332  134.23300171    0.79000002    0.05000000
   13.20388889  121.73699951    0.79000002    0.05000000
   13.21000004  121.73699951    0.79000002    0.05000000
   13.21416664  124.29900360    0.79000002    0.05000000
   13.21722221  132.64300537    0.79000002    0.05000000
   13.22055531  134.13999939    0.79000002    0.05000000
   13.22388840  124.71199799    0.79000002    0.05000000
   13.22694397  130.24699402    0.79000002    0.05000000
   13.23027706  133.71699524    0.79000002    0.05000000
   13.23333359  134.64999390    0.79000002    0.05000000
   13.23666668  129.87800598    0.79000002    0.05000000
   13.24000072  126.08999634    0.79000002    0.05000000
   13.24250031  138.67599487    0.79000002    0.05000000
   13.24333382  127.90100098    0.79000002    0.05000000
   13.24666691  122.92199707    0.79000002    0.05000000
   13.25277805  122.92199707    0.79000002    0.05000000
   13.25694466  129.27799988    0.79000002    0.05000000
   13.26027775  123.59899902    0.79000002    0.05000000
   13.26333332  127.26599884    0.79000002    0.05000000
   13.26666641  131.26199341    0.79000002    0.05000000
   13.26972198  126.05100250    0.79000002    0.05000000
   13.27305508  120.54799652    0.79000002    0.05000000
   13.27583313  105.39600372    0.79000002    0.05000000
   13.27694416   94.49700165    0.79000002    0.05000000
   13.27999973  121.53299713    0.79000002    0.05000000
   13.28388977  126.81700134    0.79000002    0.05000000
   13.28694534  116.07800293    0.79000002    0.05000000
   13.29027843  119.65799713    0.79000002    0.05000000
   13.29555607  119.65799713    0.79000002    0.05000000
   13.29972267  121.78900146    0.79000002    0.05000000
   13.30305576  125.71600342    0.79000002    0.05000000
   13.30611134  125.55000305    0.79000002    0.05000000
   13.30916691  133.87600708    0.79000002    0.05000000
   13.31000042  118.49199677    0.79000002    0.05000000
   13.31305599  123.08799744    0.79000002    0.05000000
   13.31638908  118.19899750    0.79000002    0.05000000
   13.31944466  125.31300354    0.79000002    0.05000000
   13.32277775  132.62600708    0.79000002    0.05000000
   13.32611084  131.71699524    0.79000002    0.05000000
   13.32916641  124.06400299    0.79000002    0.05000000
   13.33249950  116.93000031    0.79000002    0.05000000
   13.34249973   -1.00000000    0.79000002    0.05000000
   13.34583282   -1.00000000    0.79000002    0.05000000
   13.34888840   -1.00000000    0.79000002    0.05000000
   13.35222244   -1.00000000    0.79000002    0.05000000
   13.35555553   -1.00000000    0.79000002    0.05000000
   13.35861111   -1.00000000    0.79000002    0.05000000
   13.36194515  123.94899750    0.79000002    0.05000000
   13.36527824  126.93599701    0.79000002    0.05000000
   13.36833382  125.29000092    0.79000002    0.05000000
   13.37166691  120.97699738    0.79000002    0.05000000
   13.37472248  121.75399780    0.79000002    0.05000000
   13.37583351  120.98400116    0.79000002    0.05000000
   13.39638901  120.98400116    0.79000002    0.05000000
   13.40055561  133.11900330    0.79000002    0.05000000
   13.40388870  130.75300598    0.79000002    0.05000000
   13.40694427  132.77299500    0.79000002    0.05000000
   13.40916634  126.42700195    0.79000002    0.05000000
   13.41083336  115.04699707    0.79000002    0.05000000
   13.41416645  121.52100372    0.79000002    0.05000000
   13.41722298  122.53600311    0.79000002    0.05000000
   13.42055607  128.02900696    0.79000002    0.05000000
   13.42361164  128.64900208    0.79000002    0.05000000
   13.42694473  128.83299255    0.79000002    0.05000000
   13.43027782  119.10299683    0.79000002    0.05000000
   13.43333340  134.02699280    0.79000002    0.05000000
   13.43916702  134.02699280    0.79000002    0.05000000
   13.44333363  139.46099854    0.79000002    0.05000000
   13.44666672  129.65499878    0.79000002    0.05000000
   13.44972229  123.68699646    0.79000002    0.05000000
   13.45305538  135.92799377    0.79000002    0.05000000
   13.45638847  131.39599609    0.79000002    0.05000000
   13.45944405  139.05400085    0.79000002    0.05000000
   13.46277714  127.44100189    0.79000002    0.05000000
   13.46583271  144.91299438    0.79000002    0.05000000
   13.46916580  129.14199829    0.79000002    0.05000000
   13.47249985  137.33799744    0.79000002    0.05000000
   13.47555542  117.59500122    0.79000002    0.05000000
   13.47611046  123.63400269    0.79000002    0.05000000
   13.48194408  123.63400269    0.79000002    0.05000000
   13.48611164  121.75800323    0.79000002    0.05000000
   13.48944473  128.07499695    0.79000002    0.05000000
   13.49277782  125.27300262    0.79000002    0.05000000
   13.49583340  136.52000427    0.79000002    0.05000000
   13.49916649  125.24500275    0.79000002    0.05000000
   13.50222206  118.91600037    0.79000002    0.05000000
   13.50555515  130.80099487    0.79000002    0.05000000
   13.50888920  122.86799622    0.79000002    0.05000000
   13.50944424  131.22000122    0.79000002    0.05000000
   13.51249981  130.20500183    0.79000002    0.05000000
   13.51583290  119.21800232    0.79000002    0.05000000
   13.51888847  132.34100342    0.79000002    0.05000000
   13.52499962  132.34100342    0.79000002    0.05000000
   13.52916622  135.44000244    0.79000002    0.05000000
   13.53222179  125.77500153    0.79000002    0.05000000
   13.53555584  123.41799927    0.79000002    0.05000000
   13.53861141  123.96499634    0.79000002    0.05000000
   13.54194450  123.30200195    0.79000002    0.05000000
   13.54277802  126.11799622    0.79000002    0.05000000
   13.54555607  122.95899963    0.79000002    0.05000000
   13.54888916  122.49900055    0.79000002    0.05000000
   13.55194473  117.67900085    0.79000002    0.05000000
   13.55527782  121.64900208    0.79000002    0.05000000
   13.55833340  123.71600342    0.79000002    0.05000000
   13.56166649  125.13899994    0.79000002    0.05000000
   13.56777763  125.13899994    0.79000002    0.05000000
   13.57194424  116.21299744    0.79000002    0.05000000
   13.57499981  125.98899841    0.79000002    0.05000000
   13.57611084  123.62500000    0.79000002    0.05000000
   13.57888889  116.50599670    0.79000002    0.05000000
   13.58222198  116.58000183    0.79000002    0.05000000
   13.58527756  125.06999969    0.79000002    0.05000000
   13.58861065  116.47799683    0.79000002    0.05000000
   13.59166622  110.21199799    0.79000002    0.05000000
   13.59499931  115.04599762    0.79000002    0.05000000
   13.59833336  126.12000275    0.79000002    0.05000000
   13.60138893  118.21800232    0.79000002    0.05000000
   13.60472298  118.06300354    0.79000002    0.05000000
   13.61055565  118.06300354    0.79000002    0.05000000
   13.61472225  121.26699829    0.79000002    0.05000000
   13.61805534  114.88999939    0.79000002    0.05000000
   13.62111092  122.47000122    0.79000002    0.05000000
   13.62444496  126.33000183    0.79000002    0.05000000
   13.62777805  118.62699890    0.79000002    0.05000000
   13.63083363  117.95999908    0.79000002    0.05000000
   13.63416672  117.05799866    0.79000002    0.05000000
   13.63722229  117.31700134    0.79000002    0.05000000
   13.64055538  117.17600250    0.79000002    0.05000000
   13.64277744  124.37500000    0.79000002    0.05000000
   13.64416695  128.04299927    0.79000002    0.05000000
   13.64750004  126.63700104    0.79000002    0.05000000
   13.65333271  126.63700104    0.79000002    0.05000000
   13.65749931  121.87899780    0.79000002    0.05000000
   13.66083336  130.35099792    0.79000002    0.05000000
   13.66416645  120.88800049    0.79000002    0.05000000
   13.66722298  113.88300323    0.79000002    0.05000000
   13.67055607  122.53700256    0.79000002    0.05000000
   13.67361164  130.38600159    0.79000002    0.05000000
   13.67611122  122.89099884    0.79000002    0.05000000
   13.67750072  126.25299835    0.79000002    0.05000000
   13.68083382  117.17400360    0.79000002    0.05000000
   13.68388939  121.97699738    0.79000002    0.05000000
   13.68722248  119.01999664    0.79000002    0.05000000
   13.69027805  123.34500122    0.79000002    0.05000000
   13.69638920  123.34500122    0.79000002    0.05000000
   13.70055580  142.91999817    0.79000002    0.05000000
   13.70361137  129.82000732    0.79000002    0.05000000
   13.70694447  123.69599915    0.79000002    0.05000000
   13.70944405  132.36900330    0.79000002    0.05000000
   13.71055508  145.23199463    0.79000002    0.05000000
   13.71388912  129.50700378    0.79000002    0.05000000
   13.71694374  125.31999969    0.79000002    0.05000000
   13.72027779  115.87699890    0.79000002    0.05000000
   13.72333336  136.17199707    0.79000002    0.05000000
   13.72666645  121.11499786    0.79000002    0.05000000
   13.72999954  121.01799774    0.79000002    0.05000000
   13.73305511  126.42099762    0.79000002    0.05000000
   13.73916721  126.42099762    0.79000002    0.05000000
   13.74333382  119.27200317    0.79000002    0.05000000
   13.74638939  125.40299988    0.79000002    0.05000000
   13.74972248  125.08999634    0.79000002    0.05000000
   13.75305557  121.81099701    0.79000002    0.05000000
   13.75611115  126.20899963    0.79000002    0.05000000
   13.75944424  125.99700165    0.79000002    0.05000000
   13.76277733  130.48300171    0.79000002    0.05000000
   13.76583290  131.97500610    0.79000002    0.05000000
   13.76916599  129.41700745    0.79000002    0.05000000
   13.77222157  131.21499634    0.79000002    0.05000000
   13.77555561  132.12199402    0.79000002    0.05000000
   13.77611065  124.64399719    0.79000002    0.05000000
   13.78194427  124.64399719    0.79000002    0.05000000
   13.78611183  116.48699951    0.79000002    0.05000000
   13.78944492  131.41700745    0.79000002    0.05000000
   13.79250050  136.33900452    0.79000002    0.05000000
   13.79583359  129.21299744    0.79000002    0.05000000
   13.79888916  123.66799927    0.79000002    0.05000000
   13.80222225  123.66300201    0.79000002    0.05000000
   13.80555534  130.41999817    0.79000002    0.05000000
   13.80861092  128.54800415    0.79000002    0.05000000
   13.80944443  125.97899628    0.79000002    0.05000000
   13.81222248  126.04100037    0.79000002    0.05000000
   13.81555557  131.66799927    0.79000002    0.05000000
   13.81861115  129.93600464    0.79000002    0.05000000
   13.82472229  129.93600464    0.79000002    0.05000000
   13.82888889  130.77600098    0.79000002    0.05000000
   13.83222198  134.07299805    0.79000002    0.05000000
   13.83527756  127.49299622    0.79000002    0.05000000
   13.83861065  136.62100220    0.79000002    0.05000000
   13.84194374  124.65899658    0.79000002    0.05000000
   13.84277725  125.12300110    0.79000002    0.05000000
   13.84555531  134.59800720    0.79000002    0.05000000
   13.84888840  131.35099792    0.79000002    0.05000000
   13.85194492  130.53700256    0.79000002    0.05000000
   13.85527802  143.33099365    0.79000002    0.05000000
   13.85861111  132.22099304    0.79000002    0.05000000
   13.86166668  129.74400330    0.79000002    0.05000000
   13.86777782  129.74400330    0.79000002    0.05000000
   13.87166691  134.26600647    0.79000002    0.05000000
   13.87500000  122.51599884    0.79000002    0.05000000
   13.87611103  121.69400024    0.79000002    0.05000000
   13.87861156  140.90600586    0.79000002    0.05000000
   13.88194466  135.69599915    0.79000002    0.05000000
   13.88500023  134.25999451    0.79000002    0.05000000
   13.88833332  132.71800232    0.79000002    0.05000000
   13.89166641  134.44500732    0.79000002    0.05000000
   13.89472198  132.28700256    0.79000002    0.05000000
   13.89805508  133.45100403    0.79000002    0.05000000
   13.90111065  128.06700134    0.79000002    0.05000000
   13.90444374  132.80400085    0.79000002    0.05000000
   13.91055489  132.80400085    0.79000002    0.05000000
   13.91472149  123.24099731    0.79000002    0.05000000
   13.91777802  124.42299652    0.79000002    0.05000000
   13.92111111  117.03700256    0.79000002    0.05000000
   13.92444515  126.90100098    0.79000002    0.05000000
   13.92750072  132.19099426    0.79000002    0.05000000
   13.93083382  126.13099670    0.79000002    0.05000000
   13.93388939  125.81800079    0.79000002    0.05000000
   13.93722248  123.39700317    0.79000002    0.05000000
   13.94055557  135.60899353    0.79000002    0.05000000
   13.94277763  123.90599823    0.79000002    0.05000000
   13.94416714  125.39299774    0.79000002    0.05000000
   13.94750023  114.83699799    0.79000002    0.05000000
   13.95333290  114.83699799    0.79000002    0.05000000
   13.95749950  143.33500671    0.79000002    0.05000000
   13.96083355  136.50700378    0.79000002    0.05000000
   13.96388912  128.42100525    0.79000002    0.05000000
   13.96722221  128.18899536    0.79000002    0.05000000
   13.97027779  134.51300049    0.79000002    0.05000000
   13.97361088  137.21499634    0.79000002    0.05000000
   13.97611046  131.85099792    0.79000002    0.05000000
   13.97722149  129.32000732    0.79000002    0.05000000
   13.98055553  116.37599945    0.79000002    0.05000000
   13.98361111  108.20999908    0.79000002    0.05000000
   13.98694515  117.66400146    0.79000002    0.05000000
   13.99027824  113.56199646    0.79000002    0.05000000
   13.99611092  113.56199646    0.79000002    0.05000000
   14.00027752  133.71299744    0.79000002    0.05000000
   14.00361156  124.41500092    0.79000002    0.05000000
   14.00666714  126.98899841    0.79000002    0.05000000
   14.00944424  125.37400055    0.79000002    0.05000000
   14.01027775  131.93800354    0.79000002    0.05000000
   14.01361084  120.78399658    0.79000002    0.05000000
   14.01694393  127.36599731    0.79000002    0.05000000
   14.01999950  117.22699738    0.79000002    0.05000000
   14.02333355  110.75800323    0.79000002    0.05000000
   14.02638817  118.02700043    0.79000002    0.05000000
   14.02972221  119.80500031    0.79000002    0.05000000
   14.03305531  129.57400513    0.79000002    0.05000000
   14.03916740  129.57400513    0.79000002    0.05000000
   14.04305553  121.10800171    0.79000002    0.05000000
   14.04638958  129.40100098    0.79000002    0.05000000
   14.04972267  119.04499817    0.79000002    0.05000000
   14.05277824  118.94999695    0.79000002    0.05000000
   14.05611134  116.54100037    0.79000002    0.05000000
   14.05944443  111.57399750    0.79000002    0.05000000
   14.06250000  115.95200348    0.79000002    0.05000000
   14.06583309  104.55699921    0.79000002    0.05000000
   14.06888866  115.58599854    0.79000002    0.05000000
   14.07222176  114.44499969    0.79000002    0.05000000
   14.07555580  119.73899841    0.79000002    0.05000000
   14.07611084  115.15599823    0.79000002    0.05000000
   14.08194447  115.15599823    0.79000002    0.05000000
   14.08611107  110.34899902    0.79000002    0.05000000
   14.08916664  110.83899689    0.79000002    0.05000000
   14.09249973  118.18099976    0.79000002    0.05000000
   14.09583282  123.56400299    0.79000002    0.05000000
   14.09888840  121.16600037    0.79000002    0.05000000
   14.10222244  115.40899658    0.79000002    0.05000000
   14.10555553  124.87899780    0.79000002    0.05000000
   14.10861111  117.35500336    0.79000002    0.05000000
   14.10944462  114.90100098    0.79000002    0.05000000
   14.11222267  107.82800293    0.79000002    0.05000000
   14.11555576  108.51799774    0.79000002    0.05000000
   14.11861134  112.94400024    0.79000002    0.05000000
   14.12472248  112.94400024    0.79000002    0.05000000
   14.12888908  108.53399658    0.79000002    0.05000000
   14.13194466  118.09100342    0.79000002    0.05000000
   14.13527775  114.15000153    0.79000002    0.05000000
   14.13861084  116.65499878    0.79000002    0.05000000
   14.14166641  113.05799866    0.79000002    0.05000000
   14.14277744  114.98300171    0.79000002    0.05000000
   14.14527798  110.75499725    0.79000002    0.05000000
   14.14861107  115.31199646    0.79000002    0.05000000
   14.15166664  114.37599945    0.79000002    0.05000000
   14.15499973  113.46900177    0.79000002    0.05000000
   14.15833282  108.05599976    0.79000002    0.05000000
   14.16138840  108.51599884    0.79000002    0.05000000
   14.16750050  108.51599884    0.79000002    0.05000000
   14.17166710  115.90299988    0.79000002    0.05000000
   14.17500019  111.59300232    0.79000002    0.05000000
   14.17611122  113.01899719    0.79000002    0.05000000
   14.17861176  117.19100189    0.79000002    0.05000000
   14.18194485  111.29399872    0.79000002    0.05000000
   14.18500042  108.95600128    0.79000002    0.05000000
   14.18833351  116.50800323    0.79000002    0.05000000
   14.19166660  113.83000183    0.79000002    0.05000000
   14.19472218  112.56800079    0.79000002    0.05000000
   14.19805527  112.71900177    0.79000002    0.05000000
   14.20138836  115.24900055    0.79000002    0.05000000
   14.20444393  107.47799683    0.79000002    0.05000000
   14.21055508  107.47799683    0.79000002    0.05000000
   14.21444416  111.37000275    0.79000002    0.05000000
   14.21777725  109.75800323    0.79000002    0.05000000
   14.22111034  117.30899811    0.79000002    0.05000000
   14.22416592  120.97899628    0.79000002    0.05000000
   14.22749996  111.06600189    0.79000002    0.05000000
   14.23055553  109.88300323    0.79000002    0.05000000
   14.23388958  112.90399933    0.79000002    0.05000000
   14.23722267  113.90299988    0.79000002    0.05000000
   14.24027824  112.12899780    0.79000002    0.05000000
   14.24305534  111.61499786    0.79000002    0.05000000
   14.24388885  111.89499664    0.79000002    0.05000000
   14.24722290  112.99600220    0.79000002    0.05000000
   14.25333309  112.99600220    0.79000002    0.05000000
   14.25749969  110.50000000    0.79000002    0.05000000
   14.26055527  114.49900055    0.79000002    0.05000000
   14.26388931  112.14399719    0.79000002    0.05000000
   14.26694393  112.58200073    0.79000002    0.05000000
   14.27027798  113.75599670    0.79000002    0.05000000
   14.27361107  113.41699982    0.79000002    0.05000000
   14.27638817  115.51999664    0.79000002    0.05000000
   14.27722168  118.08699799    0.79000002    0.05000000
   14.28055573  112.12300110    0.79000002    0.05000000
   14.28361130  118.87599945    0.79000002    0.05000000
   14.28694534  112.64800262    0.79000002    0.05000000
   14.29027843  110.21600342    0.79000002    0.05000000
   14.29611111  110.21600342    0.79000002    0.05000000
   14.30027771  116.47399902    0.79000002    0.05000000
   14.30333328  110.37799835    0.79000002    0.05000000
   14.30666733  112.51000214    0.79000002    0.05000000
   14.30972195  112.20600128    0.79000002    0.05000000
   14.31027794  115.99700165    0.79000002    0.05000000
   14.31361103  116.41699982    0.79000002    0.05000000
   14.31694412  110.09200287    0.79000002    0.05000000
   14.31999969  111.24199677    0.79000002    0.05000000
   14.32333374  104.42900085    0.79000002    0.05000000
   14.32638836  107.72299957    0.79000002    0.05000000
   14.32972240  113.49199677    0.79000002    0.05000000
   14.33305550  113.50700378    0.79000002    0.05000000
   14.33888817  113.50700378    0.79000002    0.05000000
   14.34305477  119.18299866    0.79000002    0.05000000
   14.34638882  111.59700012    0.79000002    0.05000000
   14.34944439  115.54699707    0.79000002    0.05000000
   14.35277843  120.18800354    0.79000002    0.05000000
   14.35611153  120.35199738    0.79000002    0.05000000
   14.35916710  113.76399994    0.79000002    0.05000000
   14.36250019  118.97699738    0.79000002    0.05000000
   14.36555576  114.36199951    0.79000002    0.05000000
   14.36888885  114.59799957    0.79000002    0.05000000
   14.37222195  117.66200256    0.79000002    0.05000000
   14.37527752  113.91799927    0.79000002    0.05000000
   14.37638855  114.69499969    0.79000002    0.05000000
   14.38166714  114.69499969    0.79000002    0.05000000
   14.38583279  111.89199829    0.79000002    0.05000000
   14.38916683  121.75900269    0.79000002    0.05000000
   14.39249992  108.94000244    0.79000002    0.05000000
   14.40999985  112.92400360    0.79000002    0.05000000
   14.41222191  110.10399628    0.79000002    0.05000000
   14.41555500  114.18499756    0.79000002    0.05000000
   14.41888905  117.28399658    0.79000002    0.05000000
   14.42472267  117.28399658    0.79000002    0.05000000
   14.42888927  115.40699768    0.79000002    0.05000000
   14.43222237  126.68900299    0.79000002    0.05000000
   14.43555546  120.44499969    0.79000002    0.05000000
   14.43861103  118.47299957    0.79000002    0.05000000
   14.44194412  120.82199860    0.79000002    0.05000000
   14.44305515  121.28800201    0.79000002    0.05000000
   14.44555569  118.60700226    0.79000002    0.05000000
   14.44888878  112.68800354    0.79000002    0.05000000
   14.45194435  114.87500000    0.79000002    0.05000000
   14.45527744  114.08100128    0.79000002    0.05000000
   14.45861053  113.92700195    0.79000002    0.05000000
   14.46166611  112.94499969    0.79000002    0.05000000
   14.46777725  112.94499969    0.79000002    0.05000000
   14.47194386  115.61299896    0.79000002    0.05000000
   14.47499943  112.31199646    0.79000002    0.05000000
   14.47638798  112.42800140    0.79000002    0.05000000
   14.47861099  114.29699707    0.79000002    0.05000000
   14.48194408  111.72499847    0.79000002    0.05000000
   14.48500061  116.03500366    0.79000002    0.05000000
   14.48833370  112.21900177    0.79000002    0.05000000
   14.49166679  111.34200287    0.79000002    0.05000000
   14.49472237  111.37699890    0.79000002    0.05000000
   14.49805546  115.50099945    0.79000002    0.05000000
   14.50138855  110.74800110    0.79000002    0.05000000
   14.50444412  116.66300201    0.79000002    0.05000000
   14.51055527  116.66300201    0.79000002    0.05000000
   14.51472187  112.47299957    0.79000002    0.05000000
   14.51777744  115.16999817    0.79000002    0.05000000
   14.52111053  109.15599823    0.79000002    0.05000000
   14.52444458  115.19999695    0.79000002    0.05000000
   14.52750015  112.87100220    0.79000002    0.05000000
   14.53083324  114.92600250    0.79000002    0.05000000
   14.53416729  113.72000122    0.79000002    0.05000000
   14.53722286  112.51399994    0.79000002    0.05000000
   14.54055595  115.82800293    0.79000002    0.05000000
   14.54305553  110.23100281    0.79000002    0.05000000
   14.54416752  111.32800293    0.79000002    0.05000000
   14.54750061  113.99800110    0.79000002    0.05000000
   14.55333328  113.99800110    0.79000002    0.05000000
   14.55749989  119.13099670    0.79000002    0.05000000
   14.56083393  115.31199646    0.79000002    0.05000000
   14.56388950  115.34600067    0.79000002    0.05000000
   14.56722260  111.59799957    0.79000002    0.05000000
   14.57027817  111.35600281    0.79000002    0.05000000
   14.57361126  113.89700317    0.79000002    0.05000000
   14.57638836  112.46399689    0.79000002    0.05000000
   14.57722187  114.78399658    0.79000002    0.05000000
   14.58055592  112.56900024    0.79000002    0.05000000
   14.58361053  111.31400299    0.79000002    0.05000000
   14.58694458  114.27899933    0.79000002    0.05000000
   14.59027767  112.19799805    0.79000002    0.05000000
   14.59611034  112.19799805    0.79000002    0.05000000
   14.60027790  115.75199890    0.79000002    0.05000000
   14.60361195  110.51200104    0.79000002    0.05000000
   14.60666752  110.66300201    0.79000002    0.05000000
   14.60972214  114.48000336    0.79000002    0.05000000
   14.61027813  115.27600098    0.79000002    0.05000000
   14.61361122  117.20800018    0.79000002    0.05000000
   14.61694431  112.08999634    0.79000002    0.05000000
   14.61999989  113.97000122    0.79000002    0.05000000
   14.62333393  114.79799652    0.79000002    0.05000000
   14.62638855  111.42299652    0.79000002    0.05000000
   14.62972260  114.35600281    0.79000002    0.05000000
   14.63305569  107.10299683    0.79000002    0.05000000
   14.63916683  107.10299683    0.79000002    0.05000000
   14.64305496  113.02799988    0.79000002    0.05000000
   14.64638901  112.66999817    0.79000002    0.05000000
   14.64972210  113.29399872    0.79000002    0.05000000
   14.65277767  111.11100006    0.79000002    0.05000000
   14.65611076  115.59999847    0.79000002    0.05000000
   14.65944386  122.54499817    0.79000002    0.05000000
   14.66249943  129.78300476    0.79000002    0.05000000
   14.66583252  144.21800232    0.79000002    0.05000000
   14.66888905  120.46600342    0.79000002    0.05000000
   14.67222214  121.52899933    0.79000002    0.05000000
   14.67555618  131.77699280    0.79000002    0.05000000
   14.67666721  132.33000183    0.79000002    0.05000000
   14.68194485  132.33000183    0.79000002    0.05000000
   14.68611145  125.52899933    0.79000002    0.05000000
   14.68916702  123.75499725    0.79000002    0.05000000
   14.69250011  123.31500244    0.79000002    0.05000000
   14.69583321  116.48500061    0.79000002    0.05000000
   14.69888878  117.31600189    0.79000002    0.05000000
   14.70222187  115.98000336    0.79000002    0.05000000
   14.70527744  118.65699768    0.79000002    0.05000000
   14.70861053  114.35500336    0.79000002    0.05000000
   14.71000004  118.26100159    0.79000002    0.05000000
   14.71222210  117.93699646    0.79000002    0.05000000
   14.71555519  115.70400238    0.79000002    0.05000000
   14.71861076  120.18299866    0.79000002    0.05000000
   14.72472191  120.18299866    0.79000002    0.05000000
   14.72888851  112.99500275    0.79000002    0.05000000
   14.73222160  117.42600250    0.79000002    0.05000000
   14.73527813  122.44100189    0.79000002    0.05000000
   14.73861122  116.35800171    0.79000002    0.05000000
   14.74166679  115.68299866    0.79000002    0.05000000
   14.74333382  114.21800232    0.79000002    0.05000000
   14.74527836  117.72299957    0.79000002    0.05000000
   14.74861145  113.06900024    0.79000002    0.05000000
   14.75166702  127.91100311    0.79000002    0.05000000
   14.75500011  124.07599640    0.79000002    0.05000000
   14.75833321  136.41700745    0.79000002    0.05000000
   14.76138878  141.19099426    0.79000002    0.05000000
   14.76749992  141.19099426    0.79000002    0.05000000
   14.77166653  121.33300018    0.79000002    0.05000000
   14.77499962  125.98799896    0.79000002    0.05000000
   14.77666664  124.84400177    0.79000002    0.05000000
   14.77861118  121.35600281    0.79000002    0.05000000
   14.78194427  118.95899963    0.79000002    0.05000000
   14.78500080  109.31400299    0.79000002    0.05000000
   14.78833389  112.95899963    0.79000002    0.05000000
   14.79166698  113.02899933    0.79000002    0.05000000
   14.79472256  116.32800293    0.79000002    0.05000000
   14.79805565  111.33200073    0.79000002    0.05000000
   14.80138874  111.73000336    0.79000002    0.05000000
   14.80444431  112.67299652    0.79000002    0.05000000
   14.81055546  112.67299652    0.79000002    0.05000000
   14.81444454  113.02100372    0.79000002    0.05000000
   14.81777763  111.13099670    0.79000002    0.05000000
   14.82111073  109.73999786    0.79000002    0.05000000
   14.82416630  110.78299713    0.79000002    0.05000000
   14.82750034  108.04000092    0.79000002    0.05000000
   14.83083344  113.79399872    0.79000002    0.05000000
   14.83388901  112.91999817    0.79000002    0.05000000
   14.83722210  118.66300201    0.79000002    0.05000000
   14.84027767  117.82199860    0.79000002    0.05000000
   14.84333324  114.19200134    0.79000002    0.05000000
   14.84388828  114.67800140    0.79000002    0.05000000
   14.84722233  116.65000153    0.79000002    0.05000000
   14.85333347  116.65000153    0.79000002    0.05000000
   14.85750008  113.69999695    0.79000002    0.05000000
   14.86055565  116.89399719    0.79000002    0.05000000
   14.86388969  112.54100037    0.79000002    0.05000000
   14.86694431  113.50700378    0.79000002    0.05000000
   14.87027836  117.62899780    0.79000002    0.05000000
   14.87361145  117.11399841    0.79000002    0.05000000
   14.87666702  114.48999786    0.79000002    0.05000000
   14.87722206  117.44400024    0.79000002    0.05000000
   14.88055611  113.85600281    0.79000002    0.05000000
   14.88361073  114.35500336    0.79000002    0.05000000
   14.88694477  116.72399902    0.79000002    0.05000000
   14.89027786  108.41799927    0.79000002    0.05000000
   14.89611053  108.41799927    0.79000002    0.05000000
   14.90027714  111.84899902    0.79000002    0.05000000
   14.90361118  113.26799774    0.79000002    0.05000000
   14.90666676  108.97399902    0.79000002    0.05000000
   14.90999985  112.98500061    0.79000002    0.05000000
   14.91027737  109.97200012    0.79000002    0.05000000
   14.91361046  110.83799744    0.79000002    0.05000000
   14.91666698  113.92299652    0.79000002    0.05000000
   14.92000008  111.62200165    0.79000002    0.05000000
   14.92333412  122.14399719    0.79000002    0.05000000
   14.92638874  120.00199890    0.79000002    0.05000000
   14.92972279  109.57499695    0.79000002    0.05000000
   14.93305588  117.34600067    0.79000002    0.05000000
   14.93888855  117.34600067    0.79000002    0.05000000
   14.94305515  112.42099762    0.79000002    0.05000000
   14.94361115  115.86699677    0.79000002    0.05000000
   14.94694424  120.30699921    0.79000002    0.05000000
   14.94999981  116.50800323    0.79000002    0.05000000
   14.95333290  111.49299622    0.79000002    0.05000000
   14.95666695  117.28099823    0.79000002    0.05000000
   14.95972157  116.39800262    0.79000002    0.05000000
   14.96305561  114.92700195    0.79000002    0.05000000
   14.96611118  116.58999634    0.79000002    0.05000000
   14.96944427  112.88899994    0.79000002    0.05000000
   14.97277737  116.70899963    0.79000002    0.05000000
   14.97583294  109.95700073    0.79000002    0.05000000
   14.97694397  107.93599701    0.79000002    0.05000000
   14.98194408  107.93599701    0.79000002    0.05000000
   14.98583317  122.95099640    0.79000002    0.05000000
   14.98916721  110.83000183    0.79000002    0.05000000
   14.99250031  113.40499878    0.79000002    0.05000000
   14.99555588  109.43499756    0.79000002    0.05000000
   14.99888897  112.37400055    0.79000002    0.05000000
   15.00222206  110.05100250    0.79000002    0.05000000
   15.00527763  106.22899628    0.79000002    0.05000000
   15.00861073  113.52899933    0.79000002    0.05000000
   15.01027775  111.11000061    0.79000002    0.05000000
   15.01222229  120.65100098    0.79000002    0.05000000
   15.01527786  113.59200287    0.79000002    0.05000000
   15.01861095  112.40799713    0.79000002    0.05000000
   15.02472210  112.40799713    0.79000002    0.05000000
   15.02888870  121.23600006    0.79000002    0.05000000
   15.03194427  121.39299774    0.79000002    0.05000000
   15.03527832  114.57299805    0.79000002    0.05000000
   15.03833389  121.82199860    0.79000002    0.05000000
   15.04166698  110.06700134    0.79000002    0.05000000
   15.04361153  120.37599945    0.79000002    0.05000000
   15.04527855  114.58300018    0.79000002    0.05000000
   15.04833412  124.56500244    0.79000002    0.05000000
   15.05166721  115.13700104    0.79000002    0.05000000
   15.05500031  119.29499817    0.79000002    0.05000000
   15.05805588  121.07199860    0.79000002    0.05000000
   15.06138897  114.05699921    0.79000002    0.05000000
   15.06750011  114.05699921    0.79000002    0.05000000
   15.07166672  114.36599731    0.79000002    0.05000000
   15.07499981  121.82800293    0.79000002    0.05000000
   15.07694435  109.20099640    0.79000002    0.05000000
   15.07861137  111.22299957    0.79000002    0.05000000
   15.08166695  115.15899658    0.79000002    0.05000000
   15.08500004  113.61900330    0.79000002    0.05000000
   15.08833313  117.65100098    0.79000002    0.05000000
   15.09138870  120.10700226    0.79000002    0.05000000
   15.09472179  123.68900299    0.79000002    0.05000000
   15.09805489  120.52700043    0.79000002    0.05000000
   15.10111141  121.59700012    0.79000002    0.05000000
   15.10444450  118.15499878    0.79000002    0.05000000
   15.11055565  118.15499878    0.79000002    0.05000000
   15.11472225  121.29900360    0.79000002    0.05000000
   15.11777782  116.74299622    0.79000002    0.05000000
   15.12111092  119.64199829    0.79000002    0.05000000
   15.12444496  121.17400360    0.79000002    0.05000000
   15.12750053  114.52200317    0.79000002    0.05000000
   15.13083363  122.34899902    0.79000002    0.05000000
   15.13416672  126.52600098    0.79000002    0.05000000
   15.13749981  123.17600250    0.79000002    0.05000000
   15.14055538  112.98799896    0.79000002    0.05000000
   15.14388847  111.26899719    0.79000002    0.05000000
   15.14555550  107.46900177    0.79000002    0.05000000
   15.14750004  111.31300354    0.79000002    0.05000000
   15.15333271  111.31300354    0.79000002    0.05000000
   15.15722179  111.03900146    0.79000002    0.05000000
   15.16055489  113.95500183    0.79000002    0.05000000
   15.16388893  107.19000244    0.79000002    0.05000000
   15.16694450  107.87100220    0.79000002    0.05000000
   15.17027855  107.82499695    0.79000002    0.05000000
   15.17333412  114.31199646    0.79000002    0.05000000
   15.17666721  110.11699677    0.79000002    0.05000000
   15.17888927  109.14399719    0.79000002    0.05000000
   15.18055630  113.28500366    0.79000002    0.05000000
   15.18361092  117.23000336    0.79000002    0.05000000
   15.18694496  107.22399902    0.79000002    0.05000000
   15.19027805  113.96499634    0.79000002    0.05000000
   15.19611073  113.96499634    0.79000002    0.05000000
   15.20027733  112.30599976    0.79000002    0.05000000
   15.20333290  119.78500366    0.79000002    0.05000000
   15.20666695  116.61699677    0.79000002    0.05000000
   15.21000004  122.18699646    0.79000002    0.05000000
   15.21222210  117.87999725    0.79000002    0.05000000
   15.21361065  116.48400116    0.79000002    0.05000000
   15.21666622  121.81999969    0.79000002    0.05000000
   15.21999931  121.43299866    0.79000002    0.05000000
   15.32444477   -1.00000000   -1.00000000   -1.00000000
   15.42361164   -1.00000000   -1.00000000   -1.00000000
   15.54750061   -1.00000000   -1.00000000   -1.00000000
   15.75388908   -1.00000000   -1.00000000   -1.00000000
   15.82805538  111.66899872    0.79000002    0.05000000
   15.83111095  105.96700287    0.79000002    0.05000000
   15.83444405  148.10699463    0.79000002    0.05000000
   15.83777714  158.87699890    0.79000002    0.05000000
   15.84083271  169.88099670    0.79000002    0.05000000
   15.84416676  151.83700562    0.79000002    0.05000000
   15.84833336  151.83700562    0.79000002    0.05000000
   15.85249996  154.88999939    0.79000002    0.05000000
   15.85555553  149.99800110    0.79000002    0.05000000
   15.85888958  141.74600220    0.79000002    0.05000000
   15.86138916  143.20799255    0.79000002    0.05000000
   15.86250019  156.57899475    0.79000002    0.05000000
   15.86583328  146.51800537    0.79000002    0.05000000
   15.86916637  167.89100647    0.79000002    0.05000000
   15.87222195  150.86000061    0.79000002    0.05000000
   15.87555599  171.01499939    0.79000002    0.05000000
   15.87861156  142.23300171    0.79000002    0.05000000
   15.88194466  139.88699341    0.79000002    0.05000000
   15.88527775  141.54800415    0.79000002    0.05000000
   15.89111137  141.54800415    0.79000002    0.05000000
   15.89527798  137.93800354    0.79000002    0.05000000
   15.89861107  146.09599304    0.79000002    0.05000000
   15.90166664  155.98500061    0.79000002    0.05000000
   15.90499973  139.51600647    0.79000002    0.05000000
   15.90805531  139.14300537    0.79000002    0.05000000
   15.91138840  132.20700073    0.79000002    0.05000000
   15.91472149  124.77600098    0.79000002    0.05000000
   15.91777802  130.27499390    0.79000002    0.05000000
   15.92111111  143.38099670    0.79000002    0.05000000
   15.92444515  125.37000275    0.79000002    0.05000000
   15.92750072  116.43800354    0.79000002    0.05000000
   15.92805576  132.91499329    0.79000002    0.05000000
   15.93388939  132.91499329    0.79000002    0.05000000
   15.93805599  116.80200195    0.79000002    0.05000000
   15.94138908  121.86199951    0.79000002    0.05000000
   15.94444466  120.28900146    0.79000002    0.05000000
   15.94777775  113.83899689    0.79000002    0.05000000
   15.95111084  130.17199707    0.79000002    0.05000000
   15.95416641  119.03600311    0.79000002    0.05000000
   15.95749950  118.15000153    0.79000002    0.05000000
   15.96083355  116.91500092    0.79000002    0.05000000
   15.96138859  115.58399963    0.79000002    0.05000000
   15.96444416  117.08699799    0.79000002    0.05000000
   15.96749973  114.29199982    0.79000002    0.05000000
   15.97083282  117.42299652    0.79000002    0.05000000
   15.97694397  117.42299652    0.79000002    0.05000000
   15.98083305  118.11699677    0.79000002    0.05000000
   15.98416710  114.01300049    0.79000002    0.05000000
   15.98750019  113.91799927    0.79000002    0.05000000
   15.99055576  118.73000336    0.79000002    0.05000000
   15.99388885  120.83799744    0.79000002    0.05000000
   15.99472237  115.48600006    0.79000002    0.05000000
   15.99750042  110.36499786    0.79000002    0.05000000
   16.00055504  112.02799988    0.79000002    0.05000000
   16.00388908  110.38300323    0.79000002    0.05000000
   16.00722313  115.12999725    0.79000002    0.05000000
   16.01027870  109.57399750    0.79000002    0.05000000
   16.01361084  116.48400116    0.79000002    0.05000000
   16.01972198  116.48400116    0.79000002    0.05000000
   16.02388954  113.53399658    0.79000002    0.05000000
   16.02694511  109.28299713    0.79000002    0.05000000
   16.02833366  112.06800079    0.79000002    0.05000000
   16.03111076  114.19699860    0.79000002    0.05000000
   16.03416634  111.21099854    0.79000002    0.05000000
   16.03750038  108.76799774    0.79000002    0.05000000
   16.04055595  112.01899719    0.79000002    0.05000000
   16.04388809  110.23100281    0.79000002    0.05000000
   16.04722214  111.63300323    0.79000002    0.05000000
   16.05027771  115.01300049    0.79000002    0.05000000
   16.05360985  115.07700348    0.79000002    0.05000000
   16.05694389  119.12400055    0.79000002    0.05000000
   16.06250000  119.12400055    0.79000002    0.05000000
   16.06666756  121.50399780    0.79000002    0.05000000
   16.07000160  116.69699860    0.79000002    0.05000000
   16.07305717  120.51599884    0.79000002    0.05000000
   16.07638931  118.45700073    0.79000002    0.05000000
   16.07944489  116.23500061    0.79000002    0.05000000
   16.08277893  118.62999725    0.79000002    0.05000000
   16.08611107  110.36100006    0.79000002    0.05000000
   16.08916664  112.49400330    0.79000002    0.05000000
   16.09250069  111.00099945    0.79000002    0.05000000
   16.09472275  112.87899780    0.79000002    0.05000000
   16.09611130  116.28900146    0.79000002    0.05000000
   16.09916687  113.66999817    0.79000002    0.05000000
   16.10527802  113.66999817    0.79000002    0.05000000
   16.10944557  111.10299683    0.79000002    0.05000000
   16.11277771  115.66400146    0.79000002    0.05000000
   16.11611176  115.01999664    0.79000002    0.05000000
   16.11916733  111.48999786    0.79000002    0.05000000
   16.12249947  114.16600037    0.79000002    0.05000000
   16.12555504  116.23500061    0.79000002    0.05000000
   16.12805557  110.38700104    0.79000002    0.05000000
   16.12944412  112.45200348    0.79000002    0.05000000
   16.13277817  112.97299957    0.79000002    0.05000000
   16.13583374  119.58699799    0.79000002    0.05000000
   16.13916588  114.27500153    0.79000002    0.05000000
   16.14222145  111.58200073    0.79000002    0.05000000
   16.14833260  111.58200073    0.79000002    0.05000000
   16.15222168  115.80400085    0.79000002    0.05000000
   16.15555573  112.42199707    0.79000002    0.05000000
   16.15888786  117.72899628    0.79000002    0.05000000
   16.16138840  118.30699921    0.79000002    0.05000000
   16.16250038  113.43000031    0.79000002    0.05000000
   16.16583252  110.84100342    0.79000002    0.05000000
   16.16888809  114.06600189    0.79000002    0.05000000
   16.17222214  109.01799774    0.79000002    0.05000000
   16.17527771  115.23899841    0.79000002    0.05000000
   16.17860985  111.07499695    0.79000002    0.05000000
   16.18194389  113.27100372    0.79000002    0.05000000
   16.18499947  114.73100281    0.79000002    0.05000000
   16.19111061  114.73100281    0.79000002    0.05000000
   16.19527626  112.98899841    0.79000002    0.05000000
   16.19833183  116.65399933    0.79000002    0.05000000
   16.20166779  114.55899811    0.79000002    0.05000000
   16.20499992  112.65100098    0.79000002    0.05000000
   16.20805550  111.67099762    0.79000002    0.05000000
   16.21138954  116.07399750    0.79000002    0.05000000
   16.21472359  109.19000244    0.79000002    0.05000000
   16.21777916  117.11499786    0.79000002    0.05000000
   16.22111130  110.82499695    0.79000002    0.05000000
   16.22416687  110.67199707    0.79000002    0.05000000
   16.22750092  110.25199890    0.79000002    0.05000000
   16.22805595  113.17900085    0.79000002    0.05000000
   16.23388863  113.17900085    0.79000002    0.05000000
   16.23805618  115.54799652    0.79000002    0.05000000
   16.24138832  119.85399628    0.79000002    0.05000000
   16.24472237  115.71600342    0.79000002    0.05000000
   16.24777794  117.21299744    0.79000002    0.05000000
   16.25111198  115.51599884    0.79000002    0.05000000
   16.25444412  112.91100311    0.79000002    0.05000000
   16.25777817  116.62300110    0.79000002    0.05000000
   16.26083374  109.05200195    0.79000002    0.05000000
   16.26138878  113.76999664    0.79000002    0.05000000
   16.26444435  116.75700378    0.79000002    0.05000000
   16.26777840  115.75900269    0.79000002    0.05000000
   16.27083397  116.92500305    0.79000002    0.05000000
   16.27666664  116.92500305    0.79000002    0.05000000
   16.28083229  115.45899963    0.79000002    0.05000000
   16.28416634  113.06800079    0.79000002    0.05000000
   16.28722191  116.55899811    0.79000002    0.05000000
   16.29055595  118.45500183    0.79000002    0.05000000
   16.29388809  117.68599701    0.79000002    0.05000000
   16.29472160  115.94400024    0.79000002    0.05000000
   16.29749870  118.11699677    0.79000002    0.05000000
   16.30083275  115.91699982    0.79000002    0.05000000
   16.30388832  115.70999908    0.79000002    0.05000000
   16.30722237  113.55599976    0.79000002    0.05000000
   16.31055450  120.07900238    0.79000002    0.05000000
   16.31388855  118.49199677    0.79000002    0.05000000
   16.31972313  118.49199677    0.79000002    0.05000000
   16.32361221  114.15799713    0.79000002    0.05000000
   16.32694626  104.66799927    0.79000002    0.05000000
   16.32805634  116.90000153    0.79000002    0.05000000
   16.33055687  112.00199890    0.79000002    0.05000000
   16.33388901  114.29799652    0.79000002    0.05000000
   16.33694458  111.36900330    0.79000002    0.05000000
   16.34027863  112.55000305    0.79000002    0.05000000
   16.34333420  110.02400208    0.79000002    0.05000000
   16.34666824  114.73300171    0.79000002    0.05000000
   16.35000038  114.80500031    0.79000002    0.05000000
   16.35305595  111.12799835    0.79000002    0.05000000
   16.35639000  119.69899750    0.79000002    0.05000000
   16.36250114  119.69899750    0.79000002    0.05000000
   16.36666679  113.41000366    0.79000002    0.05000000
   16.36972237  116.86100006    0.79000002    0.05000000
   16.37305641  113.65299988    0.79000002    0.05000000
   16.37638855  116.90699768    0.79000002    0.05000000
   16.37944412  120.27300262    0.79000002    0.05000000
   16.38277817  114.16000366    0.79000002    0.05000000
   16.38583374  113.00599670    0.79000002    0.05000000
   16.38916588  110.96700287    0.79000002    0.05000000
   16.39249992  110.43199921    0.79000002    0.05000000
   16.39472198  109.03299713    0.79000002    0.05000000
   16.39611053  111.52999878    0.79000002    0.05000000
   16.39944458  113.20099640    0.79000002    0.05000000
   16.40527725  113.20099640    0.79000002    0.05000000
   16.40944481  114.74700165    0.79000002    0.05000000
   16.41250038  109.85299683    0.79000002    0.05000000
   16.41583252  114.31999969    0.79000002    0.05000000
   16.41916656  112.96399689    0.79000002    0.05000000
   16.42222214  115.35800171    0.79000002    0.05000000
   16.42555428  116.36900330    0.79000002    0.05000000
   16.42805481  112.20600128    0.79000002    0.05000000
   16.42916679  111.47299957    0.79000002    0.05000000
   16.43249893  112.72200012    0.79000002    0.05000000
   16.43555450  112.46199799    0.79000002    0.05000000
   16.43888855  114.43000031    0.79000002    0.05000000
   16.44222069  108.57900238    0.79000002    0.05000000
   16.44805527  108.57900238    0.79000002    0.05000000
   16.45222282  110.67900085    0.79000002    0.05000000
   16.45555687  114.39499664    0.79000002    0.05000000
   16.45861244  110.81199646    0.79000002    0.05000000
   16.46138954  109.21299744    0.79000002    0.05000000
   16.46222305  111.83599854    0.79000002    0.05000000
   16.46555710  117.16799927    0.79000002    0.05000000
   16.46861076  111.87500000    0.79000002    0.05000000
   16.47194481  115.93599701    0.79000002    0.05000000
   16.47527885  113.65299988    0.79000002    0.05000000
   16.47833443  111.26200104    0.79000002    0.05000000
   16.48166656  108.23500061    0.79000002    0.05000000
   16.48472214  107.17800140    0.79000002    0.05000000
   16.49111176  107.17800140    0.79000002    0.05000000
   16.49500084  109.39399719    0.79000002    0.05000000
   16.49833298  115.14600372    0.79000002    0.05000000
   16.50166702  117.49500275    0.79000002    0.05000000
   16.50472260  113.23799896    0.79000002    0.05000000
   16.50805473  114.13800049    0.79000002    0.05000000
   16.51138878  114.94300079    0.79000002    0.05000000
   16.51444435  113.97100067    0.79000002    0.05000000
   16.51777840  118.64900208    0.79000002    0.05000000
   16.52083397  117.14499664    0.79000002    0.05000000
   16.52416611  114.68199921    0.79000002    0.05000000
   16.52750015  114.84899902    0.79000002    0.05000000
   16.52805519  119.11100006    0.79000002    0.05000000
   16.53388786  119.11100006    0.79000002    0.05000000
   16.53805542  119.97599792    0.79000002    0.05000000
   16.54111099  121.23400116    0.79000002    0.05000000
   16.54472160  121.39299774    0.79000002    0.05000000
   16.54777718  112.12999725    0.79000002    0.05000000
   16.55111122  116.56700134    0.79000002    0.05000000
   16.55416679  118.58599854    0.79000002    0.05000000
   16.55749893  116.96900177    0.79000002    0.05000000
   16.56083298  115.15000153    0.79000002    0.05000000
   16.56138802  114.00299835    0.79000002    0.05000000
   16.56444359  113.09200287    0.79000002    0.05000000
   16.56777954  116.55000305    0.79000002    0.05000000
   16.57083511  116.03500366    0.79000002    0.05000000
   16.57666779  116.03500366    0.79000002    0.05000000
   16.58083344  117.68599701    0.79000002    0.05000000
   16.58416748  117.66999817    0.79000002    0.05000000
   16.58722305  115.18199921    0.79000002    0.05000000
   16.59055710  114.72699738    0.79000002    0.05000000
   16.59361267  116.34999847    0.79000002    0.05000000
   16.59472275  112.19699860    0.79000002    0.05000000
   16.59722328  116.97299957    0.79000002    0.05000000
   16.60055542  113.04900360    0.79000002    0.05000000
   16.60361099  112.74299622    0.79000002    0.05000000
   16.60694504  113.18599701    0.79000002    0.05000000
   16.61027908  110.65899658    0.79000002    0.05000000
   16.61333466  120.30799866    0.79000002    0.05000000
   16.61944389  120.30799866    0.79000002    0.05000000
   16.62361145  112.41799927    0.79000002    0.05000000
   16.62694550  112.44499969    0.79000002    0.05000000
   16.62805557  114.75000000    0.79000002    0.05000000
   16.63055611  109.55000305    0.79000002    0.05000000
   16.63388824  112.70500183    0.79000002    0.05000000
   16.63694382  108.36599731    0.79000002    0.05000000
   16.64027786  117.12799835    0.79000002    0.05000000
   16.64361191  109.91500092    0.79000002    0.05000000
   16.64666748  110.73300171    0.79000002    0.05000000
   16.64999962  116.57099915    0.79000002    0.05000000
   16.65305519  111.77400208    0.79000002    0.05000000
   16.65638924  116.77100372    0.79000002    0.05000000
   16.66250038  116.77100372    0.79000002    0.05000000
   16.66666603  113.97000122    0.79000002    0.05000000
   16.66972160  110.98699951    0.79000002    0.05000000
   16.67305565  116.05500031    0.79000002    0.05000000
   16.67611122  113.72100067    0.79000002    0.05000000
   16.67944336  114.09200287    0.79000002    0.05000000
   16.68277740  114.96700287    0.79000002    0.05000000
   16.68583298  116.77500153    0.79000002    0.05000000
   16.68916512  115.67299652    0.79000002    0.05000000
   16.69222069  113.09600067    0.79000002    0.05000000
   16.69472122  113.72899628    0.79000002    0.05000000
   16.69583321  106.25399780    0.79000002    0.05000000
   16.69916534  116.05599976    0.79000002    0.05000000
   16.70527840  116.05599976    0.79000002    0.05000000
   16.70944595  113.54100037    0.79000002    0.05000000
   16.71250153  113.70200348    0.79000002    0.05000000
   16.71583366  111.66699982    0.79000002    0.05000000
   16.71888924  116.21299744    0.79000002    0.05000000
   16.72222328  113.48300171    0.79000002    0.05000000
   16.72555542  110.30699921    0.79000002    0.05000000
   16.72833443  112.72200012    0.79000002    0.05000000
   16.72916794  118.79299927    0.79000002    0.05000000
   16.73250008  113.45800018    0.79000002    0.05000000
   16.73555565  114.25099945    0.79000002    0.05000000
   16.73888969  116.14800262    0.79000002    0.05000000
   16.74222183  113.22399902    0.79000002    0.05000000
   16.74805641  113.22399902    0.79000002    0.05000000
   16.75222206  115.85600281    0.79000002    0.05000000
   16.75527763  106.43499756    0.79000002    0.05000000
   16.75861168  112.00499725    0.79000002    0.05000000
   16.76166725  118.05699921    0.79000002    0.05000000
   16.76222229  113.83499908    0.79000002    0.05000000
   16.76555634  119.25700378    0.79000002    0.05000000
   16.76861000  112.04000092    0.79000002    0.05000000
   16.77194405  120.32499695    0.79000002    0.05000000
   16.77527809  118.47899628    0.79000002    0.05000000
   16.77833366  116.72200012    0.79000002    0.05000000
   16.78166580  108.18699646    0.79000002    0.05000000
   16.78499985  109.10399628    0.79000002    0.05000000
   16.79083252  109.10399628    0.79000002    0.05000000
   16.79500008  113.38099670    0.79000002    0.05000000
   16.79833221  111.32199860    0.79000002    0.05000000
   16.80138779  115.88600159    0.79000002    0.05000000
   16.80472183  112.33300018    0.79000002    0.05000000
   16.80805397  111.24500275    0.79000002    0.05000000
   16.81110954  111.58100128    0.79000002    0.05000000
   16.81444359  112.44999695    0.79000002    0.05000000
   16.81777954  111.67900085    0.79000002    0.05000000
   16.82083511  113.24099731    0.79000002    0.05000000
   16.82416725  116.27799988    0.79000002    0.05000000
   16.82722282  114.56900024    0.79000002    0.05000000
   16.82833481  114.72100067    0.79000002    0.05000000
   16.84889030  114.72100067    0.79000002    0.05000000
   16.85305595  113.51000214    0.79000002    0.05000000
   16.85639000  115.09400177    0.79000002    0.05000000
   16.85944557  115.93499756    0.79000002    0.05000000
   16.86166763  115.76499939    0.79000002    0.05000000
   16.86305618  115.62699890    0.79000002    0.05000000
   16.86638832  114.69300079    0.79000002    0.05000000
   16.86972237  119.13800049    0.79000002    0.05000000
   16.87277794  117.84899902    0.79000002    0.05000000
   16.87611198  118.71399689    0.79000002    0.05000000
   16.87916756  115.98699951    0.79000002    0.05000000
   16.88249969  111.91999817    0.79000002    0.05000000
   16.88583374  110.41300201    0.79000002    0.05000000
   16.89166641  110.41300201    0.79000002    0.05000000
   16.89583397  115.89099884    0.79000002    0.05000000
   16.89916611  111.63500214    0.79000002    0.05000000
   16.90222168  117.31999969    0.79000002    0.05000000
   16.90555573  115.57700348    0.79000002    0.05000000
   16.90861130  112.56700134    0.79000002    0.05000000
   16.91194344  117.58300018    0.79000002    0.05000000
   16.91527748  124.14600372    0.79000002    0.05000000
   16.91833305  114.37100220    0.79000002    0.05000000
   16.92166519  117.54000092    0.79000002    0.05000000
   16.92499924  117.23699951    0.79000002    0.05000000
   16.92805481  124.92700195    0.79000002    0.05000000
   16.92860985  116.57099915    0.79000002    0.05000000
   16.93444443  116.57099915    0.79000002    0.05000000
   16.93861008  115.00499725    0.79000002    0.05000000
   16.94194412  123.38400269    0.79000002    0.05000000
   16.94499969  118.49900055    0.79000002    0.05000000
   16.94833183  115.48600006    0.79000002    0.05000000
   16.95166779  116.32800293    0.79000002    0.05000000
   16.95472336  112.50599670    0.79000002    0.05000000
   16.95805550  114.32199860    0.79000002    0.05000000
   16.96111107  116.74900055    0.79000002    0.05000000
   16.96194458  114.94000244    0.79000002    0.05000000
   16.96500015  117.93000031    0.79000002    0.05000000
   16.96805573  114.26599884    0.79000002    0.05000000
   16.97138977  114.70099640    0.79000002    0.05000000
   16.97722244  114.70099640    0.79000002    0.05000000
   16.98139000  117.09600067    0.79000002    0.05000000
   16.98472214  113.22499847    0.79000002    0.05000000
   16.98805618  110.04000092    0.79000002    0.05000000
   16.99111176  117.08799744    0.79000002    0.05000000
   16.99444389  112.35399628    0.79000002    0.05000000
   16.99527740  118.59899902    0.79000002    0.05000000
   16.99805641  115.88099670    0.79000002    0.05000000
   17.00111198  112.74400330    0.79000002    0.05000000
   17.00444412  116.32299805    0.79000002    0.05000000
   17.00777817  113.66600037    0.79000002    0.05000000
   17.01083374  115.23500061    0.79000002    0.05000000
   17.01416588  111.99299622    0.79000002    0.05000000
   17.02027702  111.99299622    0.79000002    0.05000000
   17.02444458  114.73200226    0.79000002    0.05000000
   17.02750015  113.05100250    0.79000002    0.05000000
   17.02861023  112.34999847    0.79000002    0.05000000
   17.03111076  116.45999908    0.79000002    0.05000000
   17.03416634  115.41999817    0.79000002    0.05000000
   17.03750038  112.97799683    0.79000002    0.05000000
   17.04083252  113.82399750    0.79000002    0.05000000
   17.04388809  112.40699768    0.79000002    0.05000000
   17.04722214  115.01200104    0.79000002    0.05000000
   17.05055428  114.74800110    0.79000002    0.05000000
   17.05360985  117.05000305    0.79000002    0.05000000
   17.05694389  112.47599792    0.79000002    0.05000000
   17.06305504  112.47599792    0.79000002    0.05000000
   17.06722260  117.68000031    0.79000002    0.05000000
   17.07027817  116.20600128    0.79000002    0.05000000
   17.07361221  119.98999786    0.79000002    0.05000000
   17.07694626  116.28299713    0.79000002    0.05000000
   17.08000183  115.41699982    0.79000002    0.05000000
   17.08333397  114.84600067    0.79000002    0.05000000
   17.08666801  114.87899780    0.79000002    0.05000000
   17.08972359  108.95200348    0.79000002    0.05000000
   17.09305573  116.17500305    0.79000002    0.05000000
   17.09527779  114.02500153    0.79000002    0.05000000
   17.09666824  114.92199707    0.79000002    0.05000000
   17.09972191  111.01599884    0.79000002    0.05000000
   17.10583305  111.01599884    0.79000002    0.05000000
   17.11000061  114.17900085    0.79000002    0.05000000
   17.11333466  112.35500336    0.79000002    0.05000000
   17.11638832  118.52600098    0.79000002    0.05000000
   17.11972237  114.79100037    0.79000002    0.05000000
   17.12305641  122.95999908    0.79000002    0.05000000
   17.12611198  135.21499634    0.79000002    0.05000000
   17.12861061  140.40899658    0.79000002    0.05000000
   17.12972260  148.23899841    0.79000002    0.05000000
   17.13305473  132.89300537    0.79000002    0.05000000
   17.13611031  123.16000366    0.79000002    0.05000000
   17.13944435  137.58099365    0.79000002    0.05000000
   17.14249992  142.29400635    0.79000002    0.05000000
   17.14861107  142.29400635    0.79000002    0.05000000
   17.15277672  126.20899963    0.79000002    0.05000000
   17.15611076  114.53900146    0.79000002    0.05000000
   17.15944481  122.18299866    0.79000002    0.05000000
   17.16194344  119.53800201    0.79000002    0.05000000
   17.16305542  112.54000092    0.79000002    0.05000000
   17.16638756  115.91000366    0.79000002    0.05000000
   17.16944313  114.36299896    0.79000002    0.05000000
   17.17277718  113.51399994    0.79000002    0.05000000
   17.17583275  119.20999908    0.79000002    0.05000000
   17.17916679  118.06800079    0.79000002    0.05000000
   17.18249893  117.54799652    0.79000002    0.05000000
   17.18583298  120.63999939    0.79000002    0.05000000
   17.19166565  120.63999939    0.79000002    0.05000000
   17.19583321  122.93599701    0.79000002    0.05000000
   17.19888878  113.40499878    0.79000002    0.05000000
   17.20222282  112.00199890    0.79000002    0.05000000
   17.20527840  120.90799713    0.79000002    0.05000000
   17.20861244  116.59700012    0.79000002    0.05000000
   17.21194458  118.85700226    0.79000002    0.05000000
   17.21500015  109.02700043    0.79000002    0.05000000
   17.21833420  112.80699921    0.79000002    0.05000000
   17.22166634  113.80300140    0.79000002    0.05000000
   17.22472191  120.39900208    0.79000002    0.05000000
   17.22805595  122.83399963    0.79000002    0.05000000
   17.22861099  112.59899902    0.79000002    0.05000000
   17.23444557  112.59899902    0.79000002    0.05000000
   17.23861122  113.04299927    0.79000002    0.05000000
   17.24166679  116.42800140    0.79000002    0.05000000
   17.24500084  123.75399780    0.79000002    0.05000000
   17.24833298  114.29499817    0.79000002    0.05000000
   17.25138855  114.14399719    0.79000002    0.05000000
   17.25472260  108.56199646    0.79000002    0.05000000
   17.25805473  113.80200195    0.79000002    0.05000000
   17.26111031  118.97799683    0.79000002    0.05000000
   17.26194382  118.88200378    0.79000002    0.05000000
   17.26472282  115.19200134    0.79000002    0.05000000
   17.26805496  114.24600220    0.79000002    0.05000000
   17.27111053  112.80100250    0.79000002    0.05000000
   17.27722168  112.80100250    0.79000002    0.05000000
   17.28138924  116.85500336    0.79000002    0.05000000
   17.28472137  116.33399963    0.79000002    0.05000000
   17.28777695  115.23699951    0.79000002    0.05000000
   17.29111099  116.30500031    0.79000002    0.05000000
   17.29444313  116.19300079    0.79000002    0.05000000
   17.29527664  113.86900330    0.79000002    0.05000000
   17.29805565  111.05599976    0.79000002    0.05000000
   17.30138779  115.37500000    0.79000002    0.05000000
   17.30444336  122.26300049    0.79000002    0.05000000
   17.30777740  122.80400085    0.79000002    0.05000000
   17.31083298  121.12599945    0.79000002    0.05000000
   17.31416512  120.77600098    0.79000002    0.05000000
   17.32000160  120.77600098    0.79000002    0.05000000
   17.32416725  115.09700012    0.79000002    0.05000000
   17.32750130  116.65399933    0.79000002    0.05000000
   17.32861137  119.59799957    0.79000002    0.05000000
   17.33111191  113.66100311    0.79000002    0.05000000
   17.33444595  115.32700348    0.79000002    0.05000000
   17.33750153  116.23100281    0.79000002    0.05000000
   17.34083366  121.47299957    0.79000002    0.05000000
   17.34388924  114.72200012    0.79000002    0.05000000
   17.34722328  117.71700287    0.79000002    0.05000000
   17.35055542  113.64900208    0.79000002    0.05000000
   17.35361099  111.87400055    0.79000002    0.05000000
   17.35694504  117.18299866    0.79000002    0.05000000
   17.36305618  117.18299866    0.79000002    0.05000000
   17.36722183  116.94000244    0.79000002    0.05000000
   17.37027740  116.84400177    0.79000002    0.05000000
   17.37361145  116.76899719    0.79000002    0.05000000
   17.37666702  122.68800354    0.79000002    0.05000000
   17.38000107  119.51699829    0.79000002    0.05000000
   17.38333321  126.69400024    0.79000002    0.05000000
   17.38638878  114.62000275    0.79000002    0.05000000
   17.38972282  115.34500122    0.79000002    0.05000000
   17.39305496  120.34799957    0.79000002    0.05000000
   17.39527702  121.99199677    0.79000002    0.05000000
   17.39666748  127.58100128    0.79000002    0.05000000
   17.39999962  119.76399994    0.79000002    0.05000000
   17.40583229  119.76399994    0.79000002    0.05000000
   17.40999985  124.86900330    0.79000002    0.05000000
   17.41305542  126.79499817    0.79000002    0.05000000
   17.41638756  116.66699982    0.79000002    0.05000000
   17.41972160  123.15799713    0.79000002    0.05000000
   17.42277718  125.44300079    0.79000002    0.05000000
   17.42611122  121.61399841    0.79000002    0.05000000
   17.42860985  120.62599945    0.79000002    0.05000000
   17.42972183  128.24499512    0.79000002    0.05000000
   17.43305397  131.55999756    0.79000002    0.05000000
   17.43610954  124.46800232    0.79000002    0.05000000
   17.43944359  130.22399902    0.79000002    0.05000000
   17.44277763  128.09800720    0.79000002    0.05000000
   17.44861031  128.09800720    0.79000002    0.05000000
   17.45277786  124.33999634    0.79000002    0.05000000
   17.45611191  130.41700745    0.79000002    0.05000000
   17.45916748  133.03300476    0.79000002    0.05000000
   17.46194458  130.75399780    0.79000002    0.05000000
   17.46277809  129.77799988    0.79000002    0.05000000
   17.46611214  132.93699646    0.79000002    0.05000000
   17.46916771  133.53900146    0.79000002    0.05000000
   17.47249985  113.20099640    0.79000002    0.05000000
   17.47583389  116.77899933    0.79000002    0.05000000
   17.47888947  126.66899872    0.79000002    0.05000000
   17.48222351  125.07700348    0.79000002    0.05000000
   17.48527718  122.83699799    0.79000002    0.05000000
   17.49138832  122.83699799    0.79000002    0.05000000
   17.49555588  118.80000305    0.79000002    0.05000000
   17.49888992  119.73100281    0.79000002    0.05000000
   17.50222206  118.74099731    0.79000002    0.05000000
   17.50527763  118.51000214    0.79000002    0.05000000
   17.50861168  121.82399750    0.79000002    0.05000000
   17.51166725  115.63099670    0.79000002    0.05000000
   17.51499939  117.34200287    0.79000002    0.05000000
   17.51833344  114.86299896    0.79000002    0.05000000
   17.52138901  118.75800323    0.79000002    0.05000000
   17.52472115  119.93499756    0.79000002    0.05000000
   17.52805519  112.74700165    0.79000002    0.05000000
   17.52861023  119.30100250    0.79000002    0.05000000
   17.53444481  119.30100250    0.79000002    0.05000000
   17.53861046  121.90599823    0.79000002    0.05000000
   17.54166603  111.86900330    0.79000002    0.05000000
   17.54500008  122.40000153    0.79000002    0.05000000
   17.54805565  116.94200134    0.79000002    0.05000000
   17.55138779  119.11799622    0.79000002    0.05000000
   17.55472183  117.02700043    0.79000002    0.05000000
   17.55777740  123.71700287    0.79000002    0.05000000
   17.56110954  113.93699646    0.79000002    0.05000000
   17.56194305  111.34999847    0.79000002    0.05000000
   17.56472206  115.05699921    0.79000002    0.05000000
   17.56805611  112.45999908    0.79000002    0.05000000
   17.57111168  114.81199646    0.79000002    0.05000000
   17.57722282  114.81199646    0.79000002    0.05000000
   17.58139038  123.79199982    0.79000002    0.05000000
   17.58444595  113.78399658    0.79000002    0.05000000
   17.58777809  117.63700104    0.79000002    0.05000000
   17.59111214  120.14299774    0.79000002    0.05000000
   17.59416771  115.84400177    0.79000002    0.05000000
   17.59527779  113.84600067    0.79000002    0.05000000
   17.59777832  117.67199707    0.79000002    0.05000000
   17.60111237  117.65299988    0.79000002    0.05000000
   17.60416794  115.34400177    0.79000002    0.05000000
   17.60750008  117.58200073    0.79000002    0.05000000
   17.61083412  115.37699890    0.79000002    0.05000000
   17.61388969  134.51499939    0.79000002    0.05000000
   17.62000084  134.51499939    0.79000002    0.05000000
   17.62416649  121.03900146    0.79000002    0.05000000
   17.62750053  118.56700134    0.79000002    0.05000000
   17.62861061  118.25900269    0.79000002    0.05000000
   17.63111115  118.69699860    0.79000002    0.05000000
   17.63444519  127.62799835    0.79000002    0.05000000
   17.63750076  124.78299713    0.79000002    0.05000000
   17.64083290  121.02300262    0.79000002    0.05000000
   17.64416695  121.34600067    0.79000002    0.05000000
   17.64722252  121.86000061    0.79000002    0.05000000
   17.65055466  122.85700226    0.79000002    0.05000000
   17.65361023  127.72000122    0.79000002    0.05000000
   17.65694427  127.26599884    0.79000002    0.05000000
   17.66277695  127.26599884    0.79000002    0.05000000
   17.66694450  119.43399811    0.79000002    0.05000000
   17.67027664  119.95899963    0.79000002    0.05000000
   17.67361069  120.79000092    0.79000002    0.05000000
   17.67666626  123.85099792    0.79000002    0.05000000
   17.68000031  128.28700256    0.79000002    0.05000000
   17.68333244  131.87600708    0.79000002    0.05000000
   17.68638802  128.09100342    0.79000002    0.05000000
   17.68972206  133.87300110    0.79000002    0.05000000
   17.69277763  128.53100586    0.79000002    0.05000000
   17.69527626  125.99700165    0.79000002    0.05000000
   17.69638824  124.68299866    0.79000002    0.05000000
   17.69972038  124.81999969    0.79000002    0.05000000
   17.70583344  124.81999969    0.79000002    0.05000000
   17.71000099  128.39700317    0.79000002    0.05000000
   17.71305656  130.54800415    0.79000002    0.05000000
   17.71638870  119.34899902    0.79000002    0.05000000
   17.71944427  114.27400208    0.79000002    0.05000000
   17.72277832  113.05500031    0.79000002    0.05000000
   17.72611237  118.97000122    0.79000002    0.05000000
   17.72861099  124.80999756    0.79000002    0.05000000
   17.72972298  116.84899902    0.79000002    0.05000000
   17.73305511  117.25499725    0.79000002    0.05000000
   17.73611069  122.81099701    0.79000002    0.05000000
   17.73944473  121.42500305    0.79000002    0.05000000
   17.74277878  125.61399841    0.79000002    0.05000000
   17.74861145  125.61399841    0.79000002    0.05000000
   17.75277710  117.79699707    0.79000002    0.05000000
   17.75583267  121.13300323    0.79000002    0.05000000
   17.75916672  118.28700256    0.79000002    0.05000000
   17.76222229  124.32700348    0.79000002    0.05000000
   17.76277733  126.04699707    0.79000002    0.05000000
   17.76611137  114.35399628    0.79000002    0.05000000
   17.76916695  119.32800293    0.79000002    0.05000000
   17.77249908  127.03900146    0.79000002    0.05000000
   17.77583313  122.43800354    0.79000002    0.05000000
   17.77888870  116.38999939    0.79000002    0.05000000
   17.78222275  122.39900208    0.79000002    0.05000000
   17.78527641  129.05200195    0.79000002    0.05000000
   17.79138756  129.05200195    0.79000002    0.05000000
   17.79555511  127.67700195    0.79000002    0.05000000
   17.79861069  132.18099976    0.79000002    0.05000000
   17.80194283  121.15399933    0.79000002    0.05000000
   17.80527687  128.25000000    0.79000002    0.05000000
   17.80833244  123.74299622    0.79000002    0.05000000
   17.81166649  129.00100708    0.79000002    0.05000000
   17.81499863  119.29599762    0.79000002    0.05000000
   17.81805611  123.62999725    0.79000002    0.05000000
   17.82139015  126.91799927    0.79000002    0.05000000
   17.82444572  124.75000000    0.79000002    0.05000000
   17.82777786  123.40000153    0.79000002    0.05000000
   17.82888985  127.05899811    0.79000002    0.05000000
   17.83416748  127.05899811    0.79000002    0.05000000
   17.83833313  129.56300354    0.79000002    0.05000000
   17.84166718  128.19099426    0.79000002    0.05000000
   17.84472275  128.86999512    0.79000002    0.05000000
   17.86250114  119.99800110    0.79000002    0.05000000
   17.86499977  130.70300293    0.79000002    0.05000000
   17.86805534  124.42099762    0.79000002    0.05000000
   17.87138939  120.77200317    0.79000002    0.05000000
   17.87722206  120.77200317    0.79000002    0.05000000
   17.88138962  121.96499634    0.79000002    0.05000000
   17.88472176  115.58100128    0.79000002    0.05000000
   17.88777733  124.65899658    0.79000002    0.05000000
   17.89111137  122.83599854    0.79000002    0.05000000
   17.89444351  124.15100098    0.79000002    0.05000000
   17.89555550  124.24900055    0.79000002    0.05000000
   17.89805603  126.40799713    0.79000002    0.05000000
   17.90138817  121.92700195    0.79000002    0.05000000
   17.90444374  117.68000031    0.79000002    0.05000000
   17.90777779  120.18499756    0.79000002    0.05000000
   17.91110992  127.35099792    0.79000002    0.05000000
   17.91416550  126.53600311    0.79000002    0.05000000
   17.92000008  126.53600311    0.79000002    0.05000000
   17.92416573  119.13899994    0.79000002    0.05000000
   17.92749977  120.60700226    0.79000002    0.05000000
   17.92916679  118.73500061    0.79000002    0.05000000
   17.93111038  118.32800293    0.79000002    0.05000000
   17.93444443  118.76899719    0.79000002    0.05000000
   17.93750000  121.41400146    0.79000002    0.05000000
   17.94083214  122.00099945    0.79000002    0.05000000
   17.94416618  124.24800110    0.79000002    0.05000000
   17.94722176  119.79799652    0.79000002    0.05000000
   17.95055580  126.33399963    0.79000002    0.05000000
   17.95388985  125.30300140    0.79000002    0.05000000
   17.95694542  123.88300323    0.79000002    0.05000000
   17.96305656  123.88300323    0.79000002    0.05000000
   17.96722221  122.02799988    0.79000002    0.05000000
   17.97027779  122.37899780    0.79000002    0.05000000
   17.97361183  120.11699677    0.79000002    0.05000000
   17.97666740  120.89199829    0.79000002    0.05000000
   17.98000145  125.65299988    0.79000002    0.05000000
   17.98333359  115.77600098    0.79000002    0.05000000
   17.98638916  119.34600067    0.79000002    0.05000000
   17.98972321  115.91200256    0.79000002    0.05000000
   17.99305534  129.41999817    0.79000002    0.05000000
   17.99583435  124.47499847    0.79000002    0.05000000
   17.99666786  122.29399872    0.79000002    0.05000000
   18.00000000  121.18099976    0.79000002    0.05000000
   18.00583267  121.18099976    0.79000002    0.05000000
   18.01000023  122.77799988    0.79000002    0.05000000
   18.01305580  118.70300293    0.79000002    0.05000000
   18.01638794  115.89099884    0.79000002    0.05000000
   18.01972198  118.27700043    0.79000002    0.05000000
   18.02277756  120.93000031    0.79000002    0.05000000
   18.02611160  114.77500153    0.79000002    0.05000000
   18.02916718  113.21299744    0.79000002    0.05000000
   18.02972221  112.43399811    0.79000002    0.05000000
   18.03305435  117.67900085    0.79000002    0.05000000
   18.03638840  113.76499939    0.79000002    0.05000000
   18.03944397  118.22499847    0.79000002    0.05000000
   18.04277802  122.18099976    0.79000002    0.05000000
   18.04861069  122.18099976    0.79000002    0.05000000
   18.05277634  117.07299805    0.79000002    0.05000000
   18.05611038  115.50000000    0.79000002    0.05000000
   18.05916595  113.72299957    0.79000002    0.05000000
   18.06250000  120.87000275    0.79000002    0.05000000
   18.06277657  118.06800079    0.79000002    0.05000000
   18.06611061  120.08200073    0.79000002    0.05000000
   18.06916809  119.15100098    0.79000002    0.05000000
   18.07250023  116.18099976    0.79000002    0.05000000
   18.07583427  113.84100342    0.79000002    0.05000000
   18.07888985  114.23799896    0.79000002    0.05000000
   18.08222389  118.10500336    0.79000002    0.05000000
   18.08527756  115.01999664    0.79000002    0.05000000
   18.09138870  115.01999664    0.79000002    0.05000000
   18.09583473  115.35399628    0.79000002    0.05000000
   18.09611130  119.77799988    0.79000002    0.05000000
   18.09944534  119.85399628    0.79000002    0.05000000
   18.10250092  115.53800201    0.79000002    0.05000000
   18.10583305  112.25900269    0.79000002    0.05000000
   18.10916710  118.11699677    0.79000002    0.05000000
   18.11222267  114.49400330    0.79000002    0.05000000
   18.11555672  118.89700317    0.79000002    0.05000000
   18.11888885  119.09400177    0.79000002    0.05000000
   18.12194443  123.50000000    0.79000002    0.05000000
   18.12527847  118.52700043    0.79000002    0.05000000
   18.12861061  119.34400177    0.79000002    0.05000000
   18.12916756  116.46199799    0.79000002    0.05000000
   18.13444519  116.46199799    0.79000002    0.05000000
   18.13833237  119.11699677    0.79000002    0.05000000
   18.14166641  116.76999664    0.79000002    0.05000000
   18.14500046  115.12899780    0.79000002    0.05000000
   18.14805603  114.96299744    0.79000002    0.05000000
   18.15138817  113.35500336    0.79000002    0.05000000
   18.15472221  118.28099823    0.79000002    0.05000000
   18.15777779  116.61799622    0.79000002    0.05000000
   18.16110992  119.20400238    0.79000002    0.05000000
   18.16250038  117.88800049    0.79000002    0.05000000
   18.16472244  114.55799866    0.79000002    0.05000000
   18.16805458  124.43299866    0.79000002    0.05000000
   18.17111015  123.80500031    0.79000002    0.05000000
   18.17722130  123.80500031    0.79000002    0.05000000
   18.18138885  118.08000183    0.79000002    0.05000000
   18.18444443  114.01399994    0.79000002    0.05000000
   18.18777657  125.81400299    0.79000002    0.05000000
   18.19111061  116.95700073    0.79000002    0.05000000
   18.19416618  120.67700195    0.79000002    0.05000000
   18.19583321  119.06400299    0.79000002    0.05000000
   18.19777679  119.41699982    0.79000002    0.05000000
   18.20111275  114.66899872    0.79000002    0.05000000
   18.20416832  118.97200012    0.79000002    0.05000000
   18.20750046  115.74700165    0.79000002    0.05000000
   18.21083450  115.15200043    0.79000002    0.05000000
   18.21389008  126.30500031    0.79000002    0.05000000
   18.22000122  126.30500031    0.79000002    0.05000000
   18.22416687  118.48899841    0.79000002    0.05000000
   18.22750092  125.41100311    0.79000002    0.05000000
   18.22916794  119.13700104    0.79000002    0.05000000
   18.23083305  122.50299835    0.79000002    0.05000000
   18.23416710  125.55899811    0.79000002    0.05000000
   18.23722267  119.42199707    0.79000002    0.05000000
   18.24055672  122.25700378    0.79000002    0.05000000
   18.24388885  127.07900238    0.79000002    0.05000000
   18.24694443  128.09500122    0.79000002    0.05000000
   18.25027847  125.79100037    0.79000002    0.05000000
   18.25361061  132.55999756    0.79000002    0.05000000
   18.25666618  126.52300262    0.79000002    0.05000000
   18.26277733  126.52300262    0.79000002    0.05000000
   18.26694489  128.18099976    0.79000002    0.05000000
   18.27027702  121.85299683    0.79000002    0.05000000
   18.27361107  126.51100159    0.79000002    0.05000000
   18.27666664  122.64199829    0.79000002    0.05000000
   18.28000069  121.42400360    0.79000002    0.05000000
   18.28333282  120.13500214    0.79000002    0.05000000
   18.28638840  124.11000061    0.79000002    0.05000000
   18.28972244  120.34300232    0.79000002    0.05000000
   18.29277802  117.44100189    0.79000002    0.05000000
   18.29583359  119.32399750    0.79000002    0.05000000
   18.29638863  122.22599792    0.79000002    0.05000000
   18.29972076  117.74800110    0.79000002    0.05000000
   18.30583191  117.74800110    0.79000002    0.05000000
   18.30972099  121.55899811    0.79000002    0.05000000
   18.31305504  117.34799957    0.79000002    0.05000000
   18.31638718  122.05599976    0.79000002    0.05000000
   18.31944466  120.83999634    0.79000002    0.05000000
   18.32277870  114.74400330    0.79000002    0.05000000
   18.32611275  120.62799835    0.79000002    0.05000000
   18.32916832  127.38200378    0.79000002    0.05000000
   18.32944489  127.03700256    0.79000002    0.05000000
   18.33277893  119.95500183    0.79000002    0.05000000
   18.33611107  120.13400269    0.79000002    0.05000000
   18.33916664  121.85399628    0.79000002    0.05000000
   18.34250069  124.29199982    0.79000002    0.05000000
   18.34861183  124.29199982    0.79000002    0.05000000
   18.35277748  117.46600342    0.79000002    0.05000000
   18.35583305  120.69400024    0.79000002    0.05000000
   18.35916710  123.09899902    0.79000002    0.05000000
   18.36250114  124.31400299    0.79000002    0.05000000
   18.36277771  119.76100159    0.79000002    0.05000000
   18.36611176  122.91699982    0.79000002    0.05000000
   18.36916733  123.64399719    0.79000002    0.05000000
   18.37249947  116.19499969    0.79000002    0.05000000
   18.37583351  119.08899689    0.79000002    0.05000000
   18.37888908  119.71900177    0.79000002    0.05000000
   18.38222313  119.92299652    0.79000002    0.05000000
   18.38555527  120.20800018    0.79000002    0.05000000
   18.39138794  120.20800018    0.79000002    0.05000000
   18.39555550  115.90499878    0.79000002    0.05000000
   18.39611053  117.51000214    0.79000002    0.05000000
   18.39944458  120.88899994    0.79000002    0.05000000
   18.40250015  124.06999969    0.79000002    0.05000000
   18.40583229  119.77700043    0.79000002    0.05000000
   18.40888786  118.52300262    0.79000002    0.05000000
   18.41222191  115.11299896    0.79000002    0.05000000
   18.41555595  118.72299957    0.79000002    0.05000000
   18.41860962  121.86699677    0.79000002    0.05000000
   18.42194366  119.29399872    0.79000002    0.05000000
   18.42527771  122.48000336    0.79000002    0.05000000
   18.42833328  117.78800201    0.79000002    0.05000000
   18.42944336  123.17700195    0.79000002    0.05000000
   18.43416595  123.17700195    0.79000002    0.05000000
   18.43833160  124.23300171    0.79000002    0.05000000
   18.44166565  117.81199646    0.79000002    0.05000000
   18.44472122  116.60399628    0.79000002    0.05000000
   18.44805527  115.47200012    0.79000002    0.05000000
   18.45138931  127.87100220    0.79000002    0.05000000
   18.45472336  127.76799774    0.79000002    0.05000000
   18.45777893  124.66300201    0.79000002    0.05000000
   18.46111107  121.27400208    0.79000002    0.05000000
   18.46277809  122.62500000    0.79000002    0.05000000
   18.46472359  118.26100159    0.79000002    0.05000000
   18.46777916  123.77200317    0.79000002    0.05000000
   18.47111130  120.41899872    0.79000002    0.05000000
   18.47722244  120.41899872    0.79000002    0.05000000
   18.48111153  125.27600098    0.79000002    0.05000000
   18.48444557  122.45099640    0.79000002    0.05000000
   18.48777771  122.76799774    0.79000002    0.05000000
   18.49083328  128.15800476    0.79000002    0.05000000
   18.49416733  130.93699646    0.79000002    0.05000000
   18.49611092  126.92700195    0.79000002    0.05000000
   18.49777794  125.32499695    0.79000002    0.05000000
   18.50083351  131.15800476    0.79000002    0.05000000
   18.50416756  128.39100647    0.79000002    0.05000000
   18.50722313  134.83799744    0.79000002    0.05000000
   18.51055527  141.93099976    0.79000002    0.05000000
   18.51388931  138.64599609    0.79000002    0.05000000
   18.52000046  138.64599609    0.79000002    0.05000000
   18.52416611  143.27999878    0.79000002    0.05000000
   18.52722168  144.32299805    0.79000002    0.05000000
   18.52944374  145.28900146    0.79000002    0.05000000
   18.53111076  140.58700562    0.79000002    0.05000000
   18.53416634  141.93600464    0.79000002    0.05000000
   18.53750038  140.46400452    0.79000002    0.05000000
   18.54083252  143.71000671    0.79000002    0.05000000
   18.54388809  143.20300293    0.79000002    0.05000000
   18.54722214  133.64399719    0.79000002    0.05000000
   18.55027771  138.63400269    0.79000002    0.05000000
   18.55360985  134.68899536    0.79000002    0.05000000
   18.55694389  141.65499878    0.79000002    0.05000000
   18.56277657  141.65499878    0.79000002    0.05000000
   18.56694603  137.40199280    0.79000002    0.05000000
   18.57027817  127.53600311    0.79000002    0.05000000
   18.57333374  130.94500732    0.79000002    0.05000000
   18.57666779  134.77900696    0.79000002    0.05000000
   18.57972336  138.29400635    0.79000002    0.05000000
   18.58305550  137.13499451    0.79000002    0.05000000
   18.58638954  135.63299561    0.79000002    0.05000000
   18.58944511  135.07600403    0.79000002    0.05000000
   18.59277916  134.71499634    0.79000002    0.05000000
   18.59611130  139.97599792    0.79000002    0.05000000
   18.59666824  132.13400269    0.79000002    0.05000000
   18.59972191  131.45899963    0.79000002    0.05000000
   18.60555649  131.45899963    0.79000002    0.05000000
   18.60972214  135.90400696    0.79000002    0.05000000
   18.61305618  130.98699951    0.79000002    0.05000000
   18.61611176  128.98399353    0.79000002    0.05000000
   18.61944389  130.05299377    0.79000002    0.05000000
   18.62277794  132.77400208    0.79000002    0.05000000
   18.62583351  130.26600647    0.79000002    0.05000000
   18.62916756  132.31900024    0.79000002    0.05000000
   18.63000107  132.55299377    0.79000002    0.05000000
   18.63277817  130.44799805    0.79000002    0.05000000
   18.63611031  133.47000122    0.79000002    0.05000000
   18.63916588  132.99699402    0.79000002    0.05000000
   18.64249992  127.53900146    0.79000002    0.05000000
   18.64861107  127.53900146    0.79000002    0.05000000
   18.65250015  128.79800415    0.79000002    0.05000000
   18.65583229  131.97599792    0.79000002    0.05000000
   18.65916634  124.97399902    0.79000002    0.05000000
   18.66222191  132.49600220    0.79000002    0.05000000
   18.66333389  123.47599792    0.79000002    0.05000000
   18.66583252  127.65100098    0.79000002    0.05000000
   18.66916656  123.84400177    0.79000002    0.05000000
   18.67222214  124.28099823    0.79000002    0.05000000
   18.67555428  124.75099945    0.79000002    0.05000000
   18.67888832  131.51699829    0.79000002    0.05000000
   18.68194389  129.06599426    0.79000002    0.05000000
   18.68527603  122.17700195    0.79000002    0.05000000
   18.69138718  122.17700195    0.79000002    0.05000000
   18.69555473  124.01699829    0.79000002    0.05000000
   18.69666672  119.73999786    0.79000002    0.05000000
   18.69916534  127.32099915    0.79000002    0.05000000
   18.70250130  121.84400177    0.79000002    0.05000000
   18.70555687  122.74299622    0.79000002    0.05000000
   18.70888901  122.39099884    0.79000002    0.05000000
   18.71222305  118.76100159    0.79000002    0.05000000
   18.71527863  127.23500061    0.79000002    0.05000000
   18.71861076  118.56099701    0.79000002    0.05000000
   18.72194481  116.42400360    0.79000002    0.05000000
   18.72500038  120.79199982    0.79000002    0.05000000
   18.72833443  111.87699890    0.79000002    0.05000000
   18.73000145  126.58599854    0.79000002    0.05000000
   18.73416710  126.58599854    0.79000002    0.05000000
   18.73833275  123.24400330    0.79000002    0.05000000
   18.74166679  117.41799927    0.79000002    0.05000000
   18.74472237  120.39600372    0.79000002    0.05000000
   18.74805641  120.24500275    0.79000002    0.05000000
   18.75111198  119.79000092    0.79000002    0.05000000
   18.75444412  129.95199585    0.79000002    0.05000000
   18.75777817  121.26000214    0.79000002    0.05000000
   18.76083374  123.69000244    0.79000002    0.05000000
   18.76333427  113.87999725    0.79000002    0.05000000
   18.76444435  131.29499817    0.79000002    0.05000000
   18.76777840  121.35299683    0.79000002    0.05000000
   18.77083397  128.18200684    0.79000002    0.05000000
   18.77694511  128.18200684    0.79000002    0.05000000
   18.78111076  127.73000336    0.79000002    0.05000000
   18.78444481  134.20700073    0.79000002    0.05000000
   18.78777695  123.38300323    0.79000002    0.05000000
   18.79083252  112.56600189    0.79000002    0.05000000
   18.79416656  112.88500214    0.79000002    0.05000000
   18.79666710  120.28299713    0.79000002    0.05000000
   18.79777718  116.39800262    0.79000002    0.05000000
   18.80111122  127.51300049    0.79000002    0.05000000
   18.80416679  112.88500214    0.79000002    0.05000000
   18.80749893  114.65899658    0.79000002    0.05000000
   18.81083298  112.44699860    0.79000002    0.05000000
   18.81388855  114.91500092    0.79000002    0.05000000
   18.82000160  114.91500092    0.79000002    0.05000000
   18.82389069  117.41500092    0.79000002    0.05000000
   18.82722282  119.00099945    0.79000002    0.05000000
   18.83000183  114.81800079    0.79000002    0.05000000
   18.83083344  127.00700378    0.79000002    0.05000000
   18.83416748  122.91699982    0.79000002    0.05000000
   18.83722305  122.37500000    0.79000002    0.05000000
   18.84055710  115.60700226    0.79000002    0.05000000
   18.84388924  121.21600342    0.79000002    0.05000000
   18.84694481  114.97799683    0.79000002    0.05000000
   18.85027885  115.87000275    0.79000002    0.05000000
   18.85361099  116.40000153    0.79000002    0.05000000
   18.85666656  122.67900085    0.79000002    0.05000000
   18.86277771  122.67900085    0.79000002    0.05000000
   18.88111115  120.66500092    0.79000002    0.05000000
   18.88444519  119.01000214    0.79000002    0.05000000
   18.88750076  133.91799927    0.79000002    0.05000000
   18.89083290  112.73200226    0.79000002    0.05000000
   18.89416695  115.58799744    0.79000002    0.05000000
   18.89722252  125.97000122    0.79000002    0.05000000
   18.90055466  128.87500000    0.79000002    0.05000000
   18.90583229  128.87500000    0.79000002    0.05000000
   18.90999985  117.12200165    0.79000002    0.05000000
   18.91305542  111.70500183    0.79000002    0.05000000
   18.91416550  115.49600220    0.79000002    0.05000000
   18.91694450  111.75599670    0.79000002    0.05000000
   18.92000008  122.44400024    0.79000002    0.05000000
   18.92333221  115.54299927    0.79000002    0.05000000
   18.92666626  115.83399963    0.79000002    0.05000000
   18.92972183  118.64800262    0.79000002    0.05000000
   18.93305397  118.51899719    0.79000002    0.05000000
   18.93610954  121.65799713    0.79000002    0.05000000
   18.93944359  119.92400360    0.79000002    0.05000000
   18.94277763  121.27300262    0.79000002    0.05000000
   18.94861031  121.27300262    0.79000002    0.05000000
   18.95277786  118.17700195    0.79000002    0.05000000
   18.95611191  121.78099823    0.79000002    0.05000000
   18.95916748  111.47000122    0.79000002    0.05000000
   18.96250153  121.88899994    0.79000002    0.05000000
   18.96583366  122.83000183    0.79000002    0.05000000
   18.96888924  121.61499786    0.79000002    0.05000000
   18.97222328  120.68199921    0.79000002    0.05000000
   18.97527885  119.31900024    0.79000002    0.05000000
   18.97861099  121.58300018    0.79000002    0.05000000
   18.98083305  124.97499847    0.79000002    0.05000000
   18.98222351  115.73400116    0.79000002    0.05000000
   18.98527718  118.66500092    0.79000002    0.05000000
   18.99166679  118.66500092    0.79000002    0.05000000
   18.99555588  115.77999878    0.79000002    0.05000000
   18.99888992  112.18399811    0.79000002    0.05000000
   19.00222206  116.67400360    0.79000002    0.05000000
   19.00527763  115.43699646    0.79000002    0.05000000
   19.00861168  115.81999969    0.79000002    0.05000000
   19.01194382  112.92099762    0.79000002    0.05000000
   19.01416588  116.44699860    0.79000002    0.05000000
   19.01555634  120.08699799    0.79000002    0.05000000
   19.01861000  119.41500092    0.79000002    0.05000000
   19.02194405  118.98100281    0.79000002    0.05000000
   19.02527809  114.19599915    0.79000002    0.05000000
   19.02833366  119.27100372    0.79000002    0.05000000
   19.03444481  119.27100372    0.79000002    0.05000000
   19.03861046  119.31400299    0.79000002    0.05000000
   19.04166603  119.23500061    0.79000002    0.05000000
   19.04500008  119.68800354    0.79000002    0.05000000
   19.04749870  117.16200256    0.79000002    0.05000000
   19.04861069  113.20300293    0.79000002    0.05000000
   19.05166626  117.62899780    0.79000002    0.05000000
   19.05499840  117.12200165    0.79000002    0.05000000
   19.05833244  117.85900116    0.79000002    0.05000000
   19.06138802  114.90200043    0.79000002    0.05000000
   19.06472206  115.90599823    0.79000002    0.05000000
   19.06805611  122.29399872    0.79000002    0.05000000
   19.07111168  117.79699707    0.79000002    0.05000000
   19.07722282  117.79699707    0.79000002    0.05000000
   19.08139038  115.17199707    0.79000002    0.05000000
   19.08444595  126.10500336    0.79000002    0.05000000
   19.08777809  119.29399872    0.79000002    0.05000000
   19.09111214  129.78700256    0.79000002    0.05000000
   19.09416771  120.48799896    0.79000002    0.05000000
   19.09749985  129.22700500    0.79000002    0.05000000
   19.10083389  131.30900574    0.79000002    0.05000000
   19.10388947  135.03900146    0.79000002    0.05000000
   19.10722351  137.64799500    0.79000002    0.05000000
   19.11027908  134.36999512    0.79000002    0.05000000
   19.11361122  131.98599243    0.79000002    0.05000000
   19.11416626  130.21200562    0.79000002    0.05000000
   19.12000084  130.21200562    0.79000002    0.05000000
   19.12416649  131.81399536    0.79000002    0.05000000
   19.12750053  118.69599915    0.79000002    0.05000000
   19.13055611  133.83900452    0.79000002    0.05000000
   19.13388824  120.56199646    0.79000002    0.05000000
   19.13722229  127.73699951    0.79000002    0.05000000
   19.14027786  127.43699646    0.79000002    0.05000000
   19.14361191  121.36799622    0.79000002    0.05000000
   19.14694405  139.20799255    0.79000002    0.05000000
   19.14749908  121.98300171    0.79000002    0.05000000
   19.15055466  124.11499786    0.79000002    0.05000000
   19.15361023  136.62600708    0.79000002    0.05000000
   19.15694427  124.09799957    0.79000002    0.05000000
   19.16305542  124.09799957    0.79000002    0.05000000
   19.16694450  133.79499817    0.79000002    0.05000000
   19.17027664  121.88400269    0.79000002    0.05000000
   19.17361069  121.92299652    0.79000002    0.05000000
   19.17666626  132.14700317    0.79000002    0.05000000
   19.18000031  117.59400177    0.79000002    0.05000000
   19.18083191  126.51300049    0.79000002    0.05000000
   19.18361092  118.71499634    0.79000002    0.05000000
   19.18666649  129.62199402    0.79000002    0.05000000
   19.18999863  138.71499634    0.79000002    0.05000000
   19.19333267  132.63000488    0.79000002    0.05000000
   19.19638824  137.23300171    0.79000002    0.05000000
   19.19972038  138.28799438    0.79000002    0.05000000
   19.20583344  138.28799438    0.79000002    0.05000000
   19.21000099  143.63299561    0.79000002    0.05000000
   19.21305656  139.04899597    0.79000002    0.05000000
   19.21416664  132.42500305    0.79000002    0.05000000
   19.21666718  134.01899719    0.79000002    0.05000000
   19.21972275  132.25399780    0.79000002    0.05000000
   19.22305679  120.34999847    0.79000002    0.05000000
   19.22638893  123.78900146    0.79000002    0.05000000
   19.22944450  124.69200134    0.79000002    0.05000000
   19.23277855  126.03399658    0.79000002    0.05000000
   19.23611069  126.90699768    0.79000002    0.05000000
   19.23916626  128.59800720    0.79000002    0.05000000
   19.24250031  126.71900177    0.79000002    0.05000000
   19.24861145  126.71900177    0.79000002    0.05000000
   19.25277710  121.55000305    0.79000002    0.05000000
   19.25583267  119.54699707    0.79000002    0.05000000
   19.25916672  118.03600311    0.79000002    0.05000000
   19.26250076  121.97000122    0.79000002    0.05000000
   19.26555634  120.31600189    0.79000002    0.05000000
   19.26888847  118.41899872    0.79000002    0.05000000
   19.27222252  119.93299866    0.79000002    0.05000000
   19.27527809  118.78700256    0.79000002    0.05000000
   19.27861023  122.28299713    0.79000002    0.05000000
   19.28083229  118.24900055    0.79000002    0.05000000
   19.28222275  116.07499695    0.79000002    0.05000000
   19.28527641  125.72399902    0.79000002    0.05000000
   19.29138756  125.72399902    0.79000002    0.05000000
   19.29555511  148.87199402    0.79000002    0.05000000
   19.29888916  157.32600403    0.79000002    0.05000000
   19.30194283  145.28199768    0.79000002    0.05000000
   19.30527687  171.59700012    0.79000002    0.05000000
   19.30861092  161.93600464    0.79000002    0.05000000
   19.31166649  183.23500061    0.79000002    0.05000000
   19.31416512  191.58500671    0.79000002    0.05000000
   19.31527710  193.17900085    0.79000002    0.05000000
   19.31861115  194.71200562    0.79000002    0.05000000
   19.32166672  222.78100586    0.79000002    0.05000000
   19.32500076  221.40600586    0.79000002    0.05000000
   19.32805634  215.35600281    0.79000002    0.05000000
   19.33444595  215.35600281    0.79000002    0.05000000
   19.33833313  254.81900024    0.79000002    0.05000000
   19.34166718  228.91499329    0.79000002    0.05000000
   19.34500122  221.56300354    0.79000002    0.05000000
   19.34749985  220.33299255    0.79000002    0.05000000
   19.34861183  190.09899902    0.79000002    0.05000000
   19.35194397  189.39799500    0.79000002    0.05000000
   19.35499954  191.97799683    0.79000002    0.05000000
   19.35833359  182.28999329    0.79000002    0.05000000
   19.36138916  200.41900635    0.79000002    0.05000000
   19.36472321  171.88499451    0.79000002    0.05000000
   19.36805534  166.18299866    0.79000002    0.05000000
   19.37111092  185.58700562    0.79000002    0.05000000
   19.37722206  185.58700562    0.79000002    0.05000000
   19.38138962  165.82800293    0.79000002    0.05000000
   19.38444519  181.36900330    0.79000002    0.05000000
   19.38777733  166.72799683    0.79000002    0.05000000
   19.39111137  168.47000122    0.79000002    0.05000000
   19.39416695  164.45199585    0.79000002    0.05000000
   19.39749908  179.21600342    0.79000002    0.05000000
   19.40055466  151.48300171    0.79000002    0.05000000
   19.40388870  156.16000366    0.79000002    0.05000000
   19.40722275  143.22399902    0.79000002    0.05000000
   19.41027832  136.63299561    0.79000002    0.05000000
   19.41361046  135.34599304    0.79000002    0.05000000
   19.41416550  130.97000122    0.79000002    0.05000000
   19.42000008  130.97000122    0.79000002    0.05000000
   19.42416573  130.30499268    0.79000002    0.05000000
   19.42722130  127.39199829    0.79000002    0.05000000
   19.43055534  130.47999573    0.79000002    0.05000000
   19.43388748  133.94000244    0.79000002    0.05000000
   19.43694305  126.83999634    0.79000002    0.05000000
   19.44027710  136.67399597    0.79000002    0.05000000
   19.44361115  136.69200134    0.79000002    0.05000000
   19.44666672  136.91099548    0.79000002    0.05000000
   19.44749832  138.11799622    0.79000002    0.05000000
   19.45027924  145.26899719    0.79000002    0.05000000
   19.45361137  138.79200745    0.79000002    0.05000000
   19.45666695  136.39599609    0.79000002    0.05000000
   19.46277809  136.39599609    0.79000002    0.05000000
   19.46694565  156.13800049    0.79000002    0.05000000
   19.47027779  166.71800232    0.79000002    0.05000000
   19.47333336  157.54499817    0.79000002    0.05000000
   19.47666740  174.16200256    0.79000002    0.05000000
   19.48000145  174.64999390    0.79000002    0.05000000
   19.48083305  184.54499817    0.79000002    0.05000000
   19.48361206  167.93099976    0.79000002    0.05000000
   19.48694420  170.11199951    0.79000002    0.05000000
   19.48999977  184.87500000    0.79000002    0.05000000
   19.49333382  168.54699707    0.79000002    0.05000000
   19.49638939  185.77499390    0.79000002    0.05000000
   19.49972153  167.96600342    0.79000002    0.05000000
   19.50555611  167.96600342    0.79000002    0.05000000
   19.50972176  166.94500732    0.79000002    0.05000000
   19.51305580  157.27400208    0.79000002    0.05000000
   19.51416588  165.64599609    0.79000002    0.05000000
   19.51666641  154.61300659    0.79000002    0.05000000
   19.52000046  169.81900024    0.79000002    0.05000000
   19.52305603  158.67799377    0.79000002    0.05000000
   19.52638817  163.67599487    0.79000002    0.05000000
   19.52944374  156.96299744    0.79000002    0.05000000
   19.53277779  170.13099670    0.79000002    0.05000000
   19.53610992  168.07000732    0.79000002    0.05000000
   19.53916550  167.30000305    0.79000002    0.05000000
   19.54249954  172.26699829    0.79000002    0.05000000
   19.54861069  172.26699829    0.79000002    0.05000000
   19.55277634  171.46499634    0.79000002    0.05000000
   19.55583191  176.67300415    0.79000002    0.05000000
   19.55916595  180.89199829    0.79000002    0.05000000
   19.56222153  180.90600586    0.79000002    0.05000000
   19.56555557  168.03199768    0.79000002    0.05000000
   19.56888962  185.39500427    0.79000002    0.05000000
   19.57194519  175.32000732    0.79000002    0.05000000
   19.57527924  163.44400024    0.79000002    0.05000000
   19.57861137  160.94200134    0.79000002    0.05000000
   19.58083344  167.10499573    0.79000002    0.05000000
   19.58222389  162.06700134    0.79000002    0.05000000
   19.58555603  158.22200012    0.79000002    0.05000000
   19.59138870  158.22200012    0.79000002    0.05000000
   19.59555626  150.70100403    0.79000002    0.05000000
   19.59861183  153.25900269    0.79000002    0.05000000
   19.60194397  154.83399963    0.79000002    0.05000000
   19.60527802  146.08700562    0.79000002    0.05000000
   19.60833359  148.37699890    0.79000002    0.05000000
   19.61166763  150.59700012    0.79000002    0.05000000
   19.61416626  153.62199402    0.79000002    0.05000000
   19.61527824  153.62399292    0.79000002    0.05000000
   19.61861038  145.76199341    0.79000002    0.05000000
   19.62166595  143.77299500    0.79000002    0.05000000
   19.62500000  140.59199524    0.79000002    0.05000000
   19.62833405  150.68200684    0.79000002    0.05000000
   19.63416672  150.68200684    0.79000002    0.05000000
   19.63833237  136.27600098    0.79000002    0.05000000
   19.64166641  139.53300476    0.79000002    0.05000000
   19.64472198  141.07899475    0.79000002    0.05000000
   19.64749908  127.76100159    0.79000002    0.05000000
   19.64833260  136.92500305    0.79000002    0.05000000
   19.65166664  136.75599670    0.79000002    0.05000000
   19.65472221  125.60900116    0.79000002    0.05000000
   19.65805435  140.50599670    0.79000002    0.05000000
   19.66138840  130.43899536    0.79000002    0.05000000
   19.66444397  132.28500366    0.79000002    0.05000000
   19.66777802  136.56599426    0.79000002    0.05000000
   19.67083359  128.07000732    0.79000002    0.05000000
   19.67694473  128.07000732    0.79000002    0.05000000
   19.68111038  129.12699890    0.79000002    0.05000000
   19.68444443  125.90699768    0.79000002    0.05000000
   19.68750000  135.65899658    0.79000002    0.05000000
   19.69083214  131.27099609    0.79000002    0.05000000
   19.69416618  136.59800720    0.79000002    0.05000000
   19.69722176  134.97500610    0.79000002    0.05000000
   19.70055580  123.73799896    0.79000002    0.05000000
   19.70388985  135.89599609    0.79000002    0.05000000
   19.70694542  141.55700684    0.79000002    0.05000000
   19.71027946  140.57299805    0.79000002    0.05000000
   19.71333504  138.37600708    0.79000002    0.05000000
   19.71416664  139.89199829    0.79000002    0.05000000
   19.72000122  139.89199829    0.79000002    0.05000000
   19.72416687  139.37199402    0.79000002    0.05000000
   19.72722244  127.39700317    0.79000002    0.05000000
   19.73055649  133.00700378    0.79000002    0.05000000
   19.73361206  128.75199890    0.79000002    0.05000000
   19.73694420  129.51699829    0.79000002    0.05000000
   19.74027824  129.71400452    0.79000002    0.05000000
   19.74361229  129.27699280    0.79000002    0.05000000
   19.74666786  124.69400024    0.79000002    0.05000000
   19.74749947  124.66699982    0.79000002    0.05000000
   19.75027847  140.42199707    0.79000002    0.05000000
   19.75361061  137.31199646    0.79000002    0.05000000
   19.75666618  145.39100647    0.79000002    0.05000000
   19.76277733  145.39100647    0.79000002    0.05000000
   19.76694489  139.36900330    0.79000002    0.05000000
   19.77000046  127.65299988    0.79000002    0.05000000
   19.77333260  124.38800049    0.79000002    0.05000000
   19.77666664  130.33200073    0.79000002    0.05000000
   19.77972221  125.77799988    0.79000002    0.05000000
   19.78083229  130.02299500    0.79000002    0.05000000
   19.78333282  124.04799652    0.79000002    0.05000000
   19.78666687  123.76799774    0.79000002    0.05000000
   19.78972244  120.33599854    0.79000002    0.05000000
   19.79305458  124.09400177    0.79000002    0.05000000
   19.79638863  118.55200195    0.79000002    0.05000000
   19.79944420  131.97900391    0.79000002    0.05000000
   19.80555534  131.97900391    0.79000002    0.05000000
   19.80972099  121.87100220    0.79000002    0.05000000
   19.81305504  119.15399933    0.79000002    0.05000000
   19.81416512  126.91500092    0.79000002    0.05000000
   19.81666756  129.78700256    0.79000002    0.05000000
   19.82000160  123.05899811    0.79000002    0.05000000
   19.82305717  127.76999664    0.79000002    0.05000000
   19.82638931  120.86900330    0.79000002    0.05000000
   19.82972336  123.23799896    0.79000002    0.05000000
   19.83277893  125.28099823    0.79000002    0.05000000
   19.83611107  124.76699829    0.79000002    0.05000000
   19.83916664  132.48699951    0.79000002    0.05000000
   19.84250069  130.96699524    0.79000002    0.05000000
   19.84833336  130.96699524    0.79000002    0.05000000
   19.85250092  222.15199280    0.79000002    0.05000000
   19.85583305  216.52799988    0.79000002    0.05000000
   19.85916710  243.27900696    0.79000002    0.05000000
   19.86222267  278.63299561    0.79000002    0.05000000
   19.86555672  220.96600342    0.79000002    0.05000000
   19.86861038  239.41799927    0.79000002    0.05000000
   19.87194443  217.55299377    0.79000002    0.05000000
   19.87527847  223.80099487    0.79000002    0.05000000
   19.87833405  230.10200500    0.79000002    0.05000000
   19.88083267  191.05099487    0.79000002    0.05000000
   19.90166664  191.05099487    0.79000002    0.05000000
   19.90583229  237.61799622    0.79000002    0.05000000
   19.90888786  214.90600586    0.79000002    0.05000000
   19.91222191  207.97500610    0.79000002    0.05000000
   19.91444397  209.16499329    0.79000002    0.05000000
   19.91583252  205.85800171    0.79000002    0.05000000
   19.91916656  222.81100464    0.79000002    0.05000000
   19.92249870  255.61300659    0.79000002    0.05000000
   19.92555428  205.47300720    0.79000002    0.05000000
   19.92888832  217.59199524    0.79000002    0.05000000
   19.93222237  225.05299377    0.79000002    0.05000000
   19.93555450  211.93899536    0.79000002    0.05000000
   19.93861008  212.59500122    0.79000002    0.05000000
   19.94444275  212.59500122    0.79000002    0.05000000
   19.94861031  199.17599487    0.79000002    0.05000000
   19.95166779  209.21800232    0.79000002    0.05000000
   19.95499992  211.53100586    0.79000002    0.05000000
   19.95805550  191.54899597    0.79000002    0.05000000
   19.96138954  205.70399475    0.79000002    0.05000000
   19.96472359  204.85499573    0.79000002    0.05000000
   19.96777916  187.81300354    0.79000002    0.05000000
   19.97111130  203.92999268    0.79000002    0.05000000
   19.97416687  199.23399353    0.79000002    0.05000000
   19.97750092  185.78300476    0.79000002    0.05000000
   19.98083305  221.64700317    0.79000002    0.05000000
   19.98139000  197.24000549    0.79000002    0.05000000
   19.98722267  197.24000549    0.79000002    0.05000000
   19.99138832  215.44900513    0.79000002    0.05000000
   19.99444389  192.57899475    0.79000002    0.05000000
   19.99777794  191.37899780    0.79000002    0.05000000
   20.00111198  198.56199646    0.79000002    0.05000000
   20.00416756  182.89900208    0.79000002    0.05000000
   20.00749969  185.83599854    0.79000002    0.05000000
   20.01083374  178.86500549    0.79000002    0.05000000
   20.01388931  158.90100098    0.79000002    0.05000000
   20.01472282  164.73599243    0.79000002    0.05000000
   20.01749992  190.49000549    0.79000002    0.05000000
   20.02083397  182.74299622    0.79000002    0.05000000
   20.02416611  169.90199280    0.79000002    0.05000000
   20.03000069  169.90199280    0.79000002    0.05000000
   20.03444481  162.41600037    0.79000002    0.05000000
   20.03777695  158.15400696    0.79000002    0.05000000
   20.04083252  169.76600647    0.79000002    0.05000000
   20.04416656  151.85800171    0.79000002    0.05000000
   20.04749870  156.77099609    0.79000002    0.05000000
   20.04805565  162.28100586    0.79000002    0.05000000
   20.05083275  175.53599548    0.79000002    0.05000000
   20.05416679  148.94400024    0.79000002    0.05000000
   20.05749893  170.20899963    0.79000002    0.05000000
   20.06055450  168.89199829    0.79000002    0.05000000
   20.06388855  140.62399292    0.79000002    0.05000000
   20.06694603  153.27999878    0.79000002    0.05000000
   20.07277870  153.27999878    0.79000002    0.05000000
   20.07694626  152.59599304    0.79000002    0.05000000
   20.08027840  142.37800598    0.79000002    0.05000000
   20.08139038  143.35899353    0.79000002    0.05000000
   20.08388901  142.02499390    0.79000002    0.05000000
   20.08722305  147.92399597    0.79000002    0.05000000
   20.09055710  139.79899597    0.79000002    0.05000000
   20.09361267  126.49099731    0.79000002    0.05000000
   20.09694481  133.63200378    0.79000002    0.05000000
   20.10000038  150.61000061    0.79000002    0.05000000
   20.10333443  155.05499268    0.79000002    0.05000000
   20.10666656  131.60699463    0.79000002    0.05000000
   20.10972214  129.23500061    0.79000002    0.05000000
   20.11583328  129.23500061    0.79000002    0.05000000
   20.12000084  120.34200287    0.79000002    0.05000000
   20.12305641  125.17400360    0.79000002    0.05000000
   20.12638855  127.43599701    0.79000002    0.05000000
   20.12944412  129.44000244    0.79000002    0.05000000
   20.13277817  130.02999878    0.79000002    0.05000000
   20.13611031  121.87500000    0.79000002    0.05000000
   20.13916588  123.91000366    0.79000002    0.05000000
   20.14249992  125.08000183    0.79000002    0.05000000
   20.14583397  123.39399719    0.79000002    0.05000000
   20.14805603  123.67800140    0.79000002    0.05000000
   20.14916611  123.36900330    0.79000002    0.05000000
   20.15250015  124.40399933    0.79000002    0.05000000
   20.15861130  124.40399933    0.79000002    0.05000000
   20.16277695  118.85099792    0.79000002    0.05000000
   20.16583252  121.68599701    0.79000002    0.05000000
   20.16916656  122.25099945    0.79000002    0.05000000
   20.17249870  123.99500275    0.79000002    0.05000000
   20.17555428  139.88900757    0.79000002    0.05000000
   20.17888832  121.91899872    0.79000002    0.05000000
   20.18138885  128.58000183    0.79000002    0.05000000
   20.18249893  129.50799561    0.79000002    0.05000000
   20.18583298  125.59400177    0.79000002    0.05000000
   20.18916512  125.58599854    0.79000002    0.05000000
   20.19222069  124.86599731    0.79000002    0.05000000
   20.19555473  121.62000275    0.79000002    0.05000000
   20.20138931  121.62000275    0.79000002    0.05000000
   20.20555687  123.30899811    0.79000002    0.05000000
   20.20888901  129.22200012    0.79000002    0.05000000
   20.21194458  121.55400085    0.79000002    0.05000000
   20.21472359  123.53900146    0.79000002    0.05000000
   20.21555710  125.56900024    0.79000002    0.05000000
   20.21888924  126.92600250    0.79000002    0.05000000
   20.22222328  119.18599701    0.79000002    0.05000000
   20.22527885  118.57800293    0.79000002    0.05000000
   20.22861099  118.72200012    0.79000002    0.05000000
   20.23166656  118.41300201    0.79000002    0.05000000
   20.23500061  119.74600220    0.79000002    0.05000000
   20.23833275  116.23300171    0.79000002    0.05000000
   20.24416733  116.23300171    0.79000002    0.05000000
   20.24833298  123.35299683    0.79000002    0.05000000
   20.25194359  128.49600220    0.79000002    0.05000000
   20.25527763  126.37899780    0.79000002    0.05000000
   20.25833321  119.92500305    0.79000002    0.05000000
   20.26166725  126.19899750    0.79000002    0.05000000
   20.26472282  125.99400330    0.79000002    0.05000000
   20.26805496  124.83200073    0.79000002    0.05000000
   20.27138901  129.60600281    0.79000002    0.05000000
   20.27444458  117.27799988    0.79000002    0.05000000
   20.27777672  117.50599670    0.79000002    0.05000000
   20.28111076  119.91999817    0.79000002    0.05000000
   20.28138924  122.35600281    0.79000002    0.05000000
   20.28722191  122.35600281    0.79000002    0.05000000
   20.29111099  120.16799927    0.79000002    0.05000000
   20.29444313  124.62100220    0.79000002    0.05000000
   20.29777718  120.23300171    0.79000002    0.05000000
   20.30083275  122.23899841    0.79000002    0.05000000
   20.30416679  118.33899689    0.79000002    0.05000000
   20.30749893  118.25000000    0.79000002    0.05000000
   20.31055450  126.04199982    0.79000002    0.05000000
   20.31388855  121.02300262    0.79000002    0.05000000
   20.31499863  120.25000000    0.79000002    0.05000000
   20.31750107  121.33200073    0.79000002    0.05000000
   20.32083511  115.85099792    0.79000002    0.05000000
   20.32389069  119.75499725    0.79000002    0.05000000
   20.33000183  119.75499725    0.79000002    0.05000000
   20.33416748  118.43099976    0.79000002    0.05000000
   20.33722305  122.89499664    0.79000002    0.05000000
   20.34055710  123.95800018    0.79000002    0.05000000
   20.34388924  124.66400146    0.79000002    0.05000000
   20.34694481  127.49199677    0.79000002    0.05000000
   20.34833336  118.10600281    0.79000002    0.05000000
   20.35055542  115.39600372    0.79000002    0.05000000
   20.35388947  118.69499969    0.79000002    0.05000000
   20.35694504  127.72399902    0.79000002    0.05000000
   20.36027908  101.58599854    0.79000002    0.05000000
   20.36361122  125.42900085    0.79000002    0.05000000
   20.36666679  124.53199768    0.79000002    0.05000000
   20.37277794  124.53199768    0.79000002    0.05000000
   20.37694550  124.17099762    0.79000002    0.05000000
   20.38027763  124.52500153    0.79000002    0.05000000
   20.38166618  121.83499908    0.79000002    0.05000000
   20.38361168  126.62100220    0.79000002    0.05000000
   20.38694382  127.11399841    0.79000002    0.05000000
   20.38999939  127.19300079    0.79000002    0.05000000
   20.39333344  121.30100250    0.79000002    0.05000000
   20.39666748  126.82499695    0.79000002    0.05000000
   20.39972115  124.86699677    0.79000002    0.05000000
   20.40305519  127.86000061    0.79000002    0.05000000
   20.40638924  123.01399994    0.79000002    0.05000000
   20.40944481  122.58300018    0.79000002    0.05000000
   20.41555595  122.58300018    0.79000002    0.05000000
   20.41972160  122.00599670    0.79000002    0.05000000
   20.42305565  123.59100342    0.79000002    0.05000000
   20.42638779  131.56900024    0.79000002    0.05000000
   20.42944336  127.40899658    0.79000002    0.05000000
   20.43277740  124.14600372    0.79000002    0.05000000
   20.43583298  127.30599976    0.79000002    0.05000000
   20.43916512  123.74199677    0.79000002    0.05000000
   20.44249916  121.76300049    0.79000002    0.05000000
   20.44555473  124.31700134    0.79000002    0.05000000
   20.44833183  122.69599915    0.79000002    0.05000000
   20.44916534  123.81199646    0.79000002    0.05000000
   20.45250130  122.66000366    0.79000002    0.05000000
   20.45861244  122.66000366    0.79000002    0.05000000
   20.46277809  132.14799500    0.79000002    0.05000000
   20.46583366  131.33500671    0.79000002    0.05000000
   20.46916771  126.56500244    0.79000002    0.05000000
   20.47222328  124.82399750    0.79000002    0.05000000
   20.47555542  120.39600372    0.79000002    0.05000000
   20.47888947  119.55699921    0.79000002    0.05000000
   20.48166656  130.71299744    0.79000002    0.05000000
   20.48250008  130.66299438    0.79000002    0.05000000
   20.48583412  117.23500061    0.79000002    0.05000000
   20.48888969  124.10199738    0.79000002    0.05000000
   20.49222183  119.13600159    0.79000002    0.05000000
   20.49555588  115.23899841    0.79000002    0.05000000
   20.50138855  115.23899841    0.79000002    0.05000000
   20.50555611  117.69000244    0.79000002    0.05000000
   20.50861168  120.06600189    0.79000002    0.05000000
   20.51194382  136.13600159    0.79000002    0.05000000
   20.51499939  129.40899658    0.79000002    0.05000000
   20.51555634  124.62500000    0.79000002    0.05000000
   20.51888847  121.58999634    0.79000002    0.05000000
   20.52194405  130.93600464    0.79000002    0.05000000
   20.52527809  122.52999878    0.79000002    0.05000000
   20.52861023  127.10900116    0.79000002    0.05000000
   20.53166580  122.77300262    0.79000002    0.05000000
   20.53499985  128.49499512    0.79000002    0.05000000
   20.53833199  124.05400085    0.79000002    0.05000000
   20.54416656  124.05400085    0.79000002    0.05000000
   20.54833221  121.09300232    0.79000002    0.05000000
   20.55166626  120.18800354    0.79000002    0.05000000
   20.55472183  121.82199860    0.79000002    0.05000000
   20.55805397  130.40299988    0.79000002    0.05000000
   20.56110954  119.95200348    0.79000002    0.05000000
   20.56444359  131.53700256    0.79000002    0.05000000
   20.56777954  125.31099701    0.79000002    0.05000000
   20.57083511  122.30899811    0.79000002    0.05000000
   20.57416725  128.10000610    0.79000002    0.05000000
   20.57750130  124.46199799    0.79000002    0.05000000
   20.58055687  137.32899475    0.79000002    0.05000000
   20.58166695  131.97000122    0.79000002    0.05000000
   20.58694458  131.97000122    0.79000002    0.05000000
   20.59111214  128.46600342    0.79000002    0.05000000
   20.59444427  145.52499390    0.79000002    0.05000000
   20.59749985  142.13099670    0.79000002    0.05000000
   20.60083389  132.58599854    0.79000002    0.05000000
   20.60416794  130.16200256    0.79000002    0.05000000
   20.60750008  138.92999268    0.79000002    0.05000000
   20.61055565  140.01400757    0.79000002    0.05000000
   20.61388969  146.37399292    0.79000002    0.05000000
   20.61499977  133.63400269    0.79000002    0.05000000
   20.61750031  140.78399658    0.79000002    0.05000000
   20.62083435  132.37199402    0.79000002    0.05000000
   20.62416649  125.25599670    0.79000002    0.05000000
   20.63000107  125.25599670    0.79000002    0.05000000
   20.63388824  140.60299683    0.79000002    0.05000000
   20.63722229  145.77099609    0.79000002    0.05000000
   20.64055634  138.96899414    0.79000002    0.05000000
   20.64361191  139.74000549    0.79000002    0.05000000
   20.64694405  135.83599854    0.79000002    0.05000000
   20.64833260  142.94700623    0.79000002    0.05000000
   20.65055466  138.92199707    0.79000002    0.05000000
   20.65388870  135.05900574    0.79000002    0.05000000
   20.65722275  134.18299866    0.79000002    0.05000000
   20.66027832  126.26000214    0.79000002    0.05000000
   20.66361046  125.48300171    0.79000002    0.05000000
   20.66666603  132.21099854    0.79000002    0.05000000
   20.67277718  132.21099854    0.79000002    0.05000000
   20.67694473  141.89100647    0.79000002    0.05000000
   20.68000031  142.80599976    0.79000002    0.05000000
   20.68166542  130.93400574    0.79000002    0.05000000
   20.68361092  129.92599487    0.79000002    0.05000000
   20.68694305  129.64500427    0.79000002    0.05000000
   20.69027710  126.56900024    0.79000002    0.05000000
   20.69333267  141.52499390    0.79000002    0.05000000
   20.69666672  134.01100159    0.79000002    0.05000000
   20.69972038  134.57800293    0.79000002    0.05000000
   20.70305634  145.81799316    0.79000002    0.05000000
   20.70639038  132.22099304    0.79000002    0.05000000
   20.70944595  126.12699890    0.79000002    0.05000000
   20.71555710  126.12699890    0.79000002    0.05000000
   20.71972275  132.72799683    0.79000002    0.05000000
   20.72305679  127.31099701    0.79000002    0.05000000
   20.72611237  125.08300018    0.79000002    0.05000000
   20.72944450  122.57700348    0.79000002    0.05000000
   20.73250008  125.87300110    0.79000002    0.05000000
   20.73583412  127.97499847    0.79000002    0.05000000
   20.73916626  119.35500336    0.79000002    0.05000000
   20.74222183  125.90399933    0.79000002    0.05000000
   20.74555588  124.30100250    0.79000002    0.05000000
   20.74833298  127.87300110    0.79000002    0.05000000
   20.74916649  121.10700226    0.79000002    0.05000000
   20.75250053  125.71900177    0.79000002    0.05000000
   20.75833321  125.71900177    0.79000002    0.05000000
   20.76250076  125.96499634    0.79000002    0.05000000
   20.76583290  127.97599792    0.79000002    0.05000000
   20.76888847  126.09799957    0.79000002    0.05000000
   20.77222252  123.65599823    0.79000002    0.05000000
   20.77555466  121.70600128    0.79000002    0.05000000
   20.77861023  124.04900360    0.79000002    0.05000000
   20.78166580  122.34300232    0.79000002    0.05000000
   20.78222275  124.44799805    0.79000002    0.05000000
   20.78555489  124.97200012    0.79000002    0.05000000
   20.78888893  127.01399994    0.79000002    0.05000000
   20.79194450  121.30500031    0.79000002    0.05000000
   20.79527664  126.32599640    0.79000002    0.05000000
   20.80138779  126.32599640    0.79000002    0.05000000
   20.80527687  120.26200104    0.79000002    0.05000000
   20.80861092  122.57700348    0.79000002    0.05000000
   20.81194305  120.91999817    0.79000002    0.05000000
   20.81499863  121.13899994    0.79000002    0.05000000
   20.81527710  122.38600159    0.79000002    0.05000000
   20.81861115  126.88999939    0.79000002    0.05000000
   20.82194519  128.31100464    0.79000002    0.05000000
   20.82500076  121.07399750    0.79000002    0.05000000
   20.82833481  125.93800354    0.79000002    0.05000000
   20.83166695  128.83000183    0.79000002    0.05000000
   20.83472252  133.27799988    0.79000002    0.05000000
   20.83805656  126.47699738    0.79000002    0.05000000
   20.84416771  126.47699738    0.79000002    0.05000000
   20.84833336  128.19500732    0.79000002    0.05000000
   20.84861183  126.94000244    0.79000002    0.05000000
   20.85194397  127.69200134    0.79000002    0.05000000
   20.85527802  132.19700623    0.79000002    0.05000000
   20.85833359  129.44299316    0.79000002    0.05000000
   20.86166763  131.84599304    0.79000002    0.05000000
   20.86499977  136.83599854    0.79000002    0.05000000
   20.86805534  127.27100372    0.79000002    0.05000000
   20.87138939  137.85000610    0.79000002    0.05000000
   20.87444496  131.99000549    0.79000002    0.05000000
   20.87777710  131.07800293    0.79000002    0.05000000
   20.88111115  121.81199646    0.79000002    0.05000000
   20.88166618  133.35400391    0.79000002    0.05000000
   20.88694382  133.35400391    0.79000002    0.05000000
   20.89111137  130.46200562    0.79000002    0.05000000
   20.89444351  145.13499451    0.79000002    0.05000000
   20.89749908  132.00799561    0.79000002    0.05000000
   20.91499901  138.47599792    0.79000002    0.05000000
   20.91749954  132.70100403    0.79000002    0.05000000
   20.92083359  129.60499573    0.79000002    0.05000000
   20.92388916  127.97499847    0.79000002    0.05000000
   20.93000031  127.97499847    0.79000002    0.05000000
   20.93416595  137.48800659    0.79000002    0.05000000
   20.93722153  130.62699890    0.79000002    0.05000000
   20.94055557  135.61900330    0.79000002    0.05000000
   20.94388771  127.47499847    0.79000002    0.05000000
   20.94694328  134.69200134    0.79000002    0.05000000
   20.94833183  130.99200439    0.79000002    0.05000000
   20.95083427  126.51399994    0.79000002    0.05000000
   20.95416832  130.18299866    0.79000002    0.05000000
   20.95722389  132.06700134    0.79000002    0.05000000
   20.96055603  135.27400208    0.79000002    0.05000000
   20.96361160  132.81700134    0.79000002    0.05000000
   20.96694565  131.52200317    0.79000002    0.05000000
   20.97277832  131.52200317    0.79000002    0.05000000
   20.97694588  126.70600128    0.79000002    0.05000000
   20.98027802  135.91600037    0.79000002    0.05000000
   20.98166656  133.15100098    0.79000002    0.05000000
   20.98388863  130.13600159    0.79000002    0.05000000
   20.98694420  129.67700195    0.79000002    0.05000000
   20.99027824  131.33200073    0.79000002    0.05000000
   20.99361229  126.56999969    0.79000002    0.05000000
   20.99666786  126.74800110    0.79000002    0.05000000
   21.00000000  128.96699524    0.79000002    0.05000000
   21.00305557  126.60399628    0.79000002    0.05000000
   21.00638962  128.55599976    0.79000002    0.05000000
   21.00972176  124.80300140    0.79000002    0.05000000
   21.01555634  124.80300140    0.79000002    0.05000000
   21.01972198  127.05699921    0.79000002    0.05000000
   21.02305603  131.63600159    0.79000002    0.05000000
   21.02638817  122.22000122    0.79000002    0.05000000
   21.02944374  131.47000122    0.79000002    0.05000000
   21.03277779  125.87000275    0.79000002    0.05000000
   21.03583336  129.00500488    0.79000002    0.05000000
   21.03916550  132.54499817    0.79000002    0.05000000
   21.04249954  122.86499786    0.79000002    0.05000000
   21.04555511  129.58200073    0.79000002    0.05000000
   21.04833221  130.12800598    0.79000002    0.05000000
   21.04944420  124.33399963    0.79000002    0.05000000
   21.05249977  130.33200073    0.79000002    0.05000000
   21.05861092  130.33200073    0.79000002    0.05000000
   21.06277657  125.29199982    0.79000002    0.05000000
   21.06583214  131.64900208    0.79000002    0.05000000
   21.06916809  129.34599304    0.79000002    0.05000000
   21.07222366  130.59300232    0.79000002    0.05000000
   21.07555580  126.78700256    0.79000002    0.05000000
   21.07888985  129.09899902    0.79000002    0.05000000
   21.08166695  126.56500244    0.79000002    0.05000000
   21.08250046  132.85699463    0.79000002    0.05000000
   21.08555603  127.78199768    0.79000002    0.05000000
   21.08889008  123.91799927    0.79000002    0.05000000
   21.09222221  124.54299927    0.79000002    0.05000000
   21.09527779  129.79699707    0.79000002    0.05000000
   21.10138893  129.79699707    0.79000002    0.05000000
   21.10555649  129.34700012    0.79000002    0.05000000
   21.10861206  126.30200195    0.79000002    0.05000000
   21.11194420  128.06399536    0.79000002    0.05000000
   21.11499977  126.64399719    0.79000002    0.05000000
   21.11555672  126.30599976    0.79000002    0.05000000
   21.11888885  140.67300415    0.79000002    0.05000000
   21.12194443  123.94400024    0.79000002    0.05000000
   21.12527847  130.70899963    0.79000002    0.05000000
   21.12861061  125.08499908    0.79000002    0.05000000
   21.13166618  125.92800140    0.79000002    0.05000000
   21.13500023  124.64600372    0.79000002    0.05000000
   21.13805580  125.41000366    0.79000002    0.05000000
   21.14416695  125.41000366    0.79000002    0.05000000
   21.14833260  130.17100525    0.79000002    0.05000000
   21.14888954  131.20799255    0.79000002    0.05000000
   21.15194321  119.91200256    0.79000002    0.05000000
   21.15527725  123.52400208    0.79000002    0.05000000
   21.15861130  121.58899689    0.79000002    0.05000000
   21.16166687  129.16299438    0.79000002    0.05000000
   21.16499901  125.26200104    0.79000002    0.05000000
   21.16833305  127.15699768    0.79000002    0.05000000
   21.17138863  122.65799713    0.79000002    0.05000000
   21.17472076  133.76499939    0.79000002    0.05000000
   21.17777634  127.32299805    0.79000002    0.05000000
   21.18111038  142.31799316    0.79000002    0.05000000
   21.18166542  125.90100098    0.79000002    0.05000000
   21.18694305  125.90100098    0.79000002    0.05000000
   21.19111061  125.80000305    0.79000002    0.05000000
   21.19444275  123.30799866    0.79000002    0.05000000
   21.19777679  124.97000122    0.79000002    0.05000000
   21.20083427  130.20100403    0.79000002    0.05000000
   21.20416832  130.34399414    0.79000002    0.05000000
   21.20722389  126.91799927    0.79000002    0.05000000
   21.21055603  127.78800201    0.79000002    0.05000000
   21.21389008  130.39300537    0.79000002    0.05000000
   21.21500015  135.73500061    0.79000002    0.05000000
   21.21750069  127.32399750    0.79000002    0.05000000
   21.22083473  129.16000366    0.79000002    0.05000000
   21.22389030  137.13000488    0.79000002    0.05000000
   21.23000145  137.13000488    0.79000002    0.05000000
   21.23416710  130.74400330    0.79000002    0.05000000
   21.23722267  125.89299774    0.79000002    0.05000000
   21.24055672  128.96400452    0.79000002    0.05000000
   21.24361229  135.81500244    0.79000002    0.05000000
   21.24694443  133.61199951    0.79000002    0.05000000
   21.24833298  134.22099304    0.79000002    0.05000000
   21.25055504  139.83999634    0.79000002    0.05000000
   21.25388908  134.98599243    0.79000002    0.05000000
   21.25694466  132.92100525    0.79000002    0.05000000
   21.26027870  140.52799988    0.79000002    0.05000000
   21.26333427  131.36300659    0.79000002    0.05000000
   21.26666641  137.21800232    0.79000002    0.05000000
   21.27277756  137.21800232    0.79000002    0.05000000
   21.27694511  128.51600647    0.79000002    0.05000000
   21.28000069  132.74000549    0.79000002    0.05000000
   21.28166580  128.91299438    0.79000002    0.05000000
   21.28388786  128.19500732    0.79000002    0.05000000
   21.28722191  129.23500061    0.79000002    0.05000000
   21.29027748  131.55299377    0.79000002    0.05000000
   21.29361153  130.40600586    0.79000002    0.05000000
   21.29666710  130.39700317    0.79000002    0.05000000
   21.29999924  138.56100464    0.79000002    0.05000000
   21.30333328  135.07699585    0.79000002    0.05000000
   21.30638885  127.44100189    0.79000002    0.05000000
   21.30972099  130.38299561    0.79000002    0.05000000
   21.31555557  130.38299561    0.79000002    0.05000000
   21.31972313  130.78399658    0.79000002    0.05000000
   21.32305717  129.97799683    0.79000002    0.05000000
   21.32611275  132.05299377    0.79000002    0.05000000
   21.32944489  128.63600159    0.79000002    0.05000000
   21.33277893  129.31900024    0.79000002    0.05000000
   21.33583450  130.89399719    0.79000002    0.05000000
   21.33916664  127.26699829    0.79000002    0.05000000
   21.34222221  130.18099976    0.79000002    0.05000000
   21.34555626  132.80099487    0.79000002    0.05000000
   21.34833336  125.34500122    0.79000002    0.05000000
   21.34916687  129.00000000    0.79000002    0.05000000
   21.35250092  122.42299652    0.79000002    0.05000000
   21.35833359  122.42299652    0.79000002    0.05000000
   21.36250114  131.92100525    0.79000002    0.05000000
   21.36583328  137.09800720    0.79000002    0.05000000
   21.36916733  128.78799438    0.79000002    0.05000000
   21.37222290  138.77000427    0.79000002    0.05000000
   21.37555504  132.28900146    0.79000002    0.05000000
   21.37861061  138.33399963    0.79000002    0.05000000
   21.38166618  134.72500610    0.79000002    0.05000000
   21.38249969  141.74299622    0.79000002    0.05000000
   21.38583374  130.71899414    0.79000002    0.05000000
   21.38888931  134.08700562    0.79000002    0.05000000
   21.39222145  137.72399902    0.79000002    0.05000000
   21.39527702  129.05499268    0.79000002    0.05000000
   21.40138817  129.05499268    0.79000002    0.05000000
   21.40555573  133.44400024    0.79000002    0.05000000
   21.40861130  133.91999817    0.79000002    0.05000000
   21.41194344  128.55900574    0.79000002    0.05000000
   21.41499901  131.16499329    0.79000002    0.05000000
   21.41555595  131.35400391    0.79000002    0.05000000
   21.41888809  132.65400696    0.79000002    0.05000000
   21.42194366  126.11000061    0.79000002    0.05000000
   21.42527771  126.55500031    0.79000002    0.05000000
   21.42833328  138.06700134    0.79000002    0.05000000
   21.43166542  125.38400269    0.79000002    0.05000000
   21.43499947  130.80599976    0.79000002    0.05000000
   21.43805504  129.50100708    0.79000002    0.05000000
   21.44416618  129.50100708    0.79000002    0.05000000
   21.44833183  127.56800079    0.79000002    0.05000000
   21.44888878  133.70100403    0.79000002    0.05000000
   21.45222282  126.18000031    0.79000002    0.05000000
   21.45527840  135.92100525    0.79000002    0.05000000
   21.45861244  139.21899414    0.79000002    0.05000000
   21.46166801  136.50199890    0.79000002    0.05000000
   21.46500015  137.85299683    0.79000002    0.05000000
   21.46833420  131.58700562    0.79000002    0.05000000
   21.47138977  138.05799866    0.79000002    0.05000000
   21.47472191  138.12399292    0.79000002    0.05000000
   21.47805595  137.09700012    0.79000002    0.05000000
   21.48111153  134.61900330    0.79000002    0.05000000
   21.48222351  137.03100586    0.79000002    0.05000000
   21.48694420  137.03100586    0.79000002    0.05000000
   21.49111176  138.32099915    0.79000002    0.05000000
   21.49444389  132.07600403    0.79000002    0.05000000
   21.49749947  132.20300293    0.79000002    0.05000000
   21.50083351  128.64700317    0.79000002    0.05000000
   21.50388908  134.93499756    0.79000002    0.05000000
   21.50722313  133.57299805    0.79000002    0.05000000
   21.51055527  129.55799866    0.79000002    0.05000000
   21.51361084  129.42500305    0.79000002    0.05000000
   21.51555634  132.11999512    0.79000002    0.05000000
   21.51722145  137.77900696    0.79000002    0.05000000
   21.52055550  135.77699280    0.79000002    0.05000000
   21.52388954  133.78199768    0.79000002    0.05000000
   21.52972221  133.78199768    0.79000002    0.05000000
   21.53388786  132.62500000    0.79000002    0.05000000
   21.53722191  137.66200256    0.79000002    0.05000000
   21.54027748  137.24800110    0.79000002    0.05000000
   21.54361153  127.51699829    0.79000002    0.05000000
   21.54694366  130.27200317    0.79000002    0.05000000
   21.54888916  127.03900146    0.79000002    0.05000000
   21.55027771  133.05499268    0.79000002    0.05000000
   21.55360985  133.80400085    0.79000002    0.05000000
   21.55694389  132.93499756    0.79000002    0.05000000
   21.55999947  137.86900330    0.79000002    0.05000000
   21.56333351  127.36199951    0.79000002    0.05000000
   21.56666756  136.99400330    0.79000002    0.05000000
   21.57277870  136.99400330    0.79000002    0.05000000
   21.57666779  135.02400208    0.79000002    0.05000000
   21.58000183  134.48899841    0.79000002    0.05000000
   21.58222389  129.75599670    0.79000002    0.05000000
   21.58361244  135.70500183    0.79000002    0.05000000
   21.58694458  135.86700439    0.79000002    0.05000000
   21.59027863  130.95399475    0.79000002    0.05000000
   21.59333420  133.98500061    0.79000002    0.05000000
   21.59666824  139.91799927    0.79000002    0.05000000
   21.60000038  137.01699829    0.79000002    0.05000000
   21.60305595  142.58799744    0.79000002    0.05000000
   21.60639000  142.46200562    0.79000002    0.05000000
   21.60944557  134.60699463    0.79000002    0.05000000
   21.61555672  134.60699463    0.79000002    0.05000000
   21.61972237  137.85899353    0.79000002    0.05000000
   21.62277794  142.04100037    0.79000002    0.05000000
   21.62611198  134.41900635    0.79000002    0.05000000
   21.62944412  142.63000488    0.79000002    0.05000000
   21.63249969  143.83399963    0.79000002    0.05000000
   21.63583374  158.23399353    0.79000002    0.05000000
   21.63888931  158.16799927    0.79000002    0.05000000
   21.64222145  161.30299377    0.79000002    0.05000000
   21.64555550  137.22300720    0.79000002    0.05000000
   21.64861107  140.94400024    0.79000002    0.05000000
   21.65055466  146.04400635    0.79000002    0.05000000
   21.65250015  137.07800293    0.79000002    0.05000000
   21.65833282  137.07800293    0.79000002    0.05000000
   21.66250038  141.11799622    0.79000002    0.05000000
   21.66583252  139.91799927    0.79000002    0.05000000
   21.66888809  144.81300354    0.79000002    0.05000000
   21.67222214  144.76400757    0.79000002    0.05000000
   21.67527771  149.00100708    0.79000002    0.05000000
   21.67860985  144.02400208    0.79000002    0.05000000
   21.68194389  135.12800598    0.79000002    0.05000000
   21.68388748  142.20599365    0.79000002    0.05000000
   21.68555450  133.03700256    0.79000002    0.05000000
   21.68861008  146.62899780    0.79000002    0.05000000
   21.69194412  138.35200500    0.79000002    0.05000000
   21.69527626  143.69000244    0.79000002    0.05000000
   21.70111275  143.69000244    0.79000002    0.05000000
   21.70527840  147.46099854    0.79000002    0.05000000
   21.70861244  148.44000244    0.79000002    0.05000000
   21.71166801  144.10000610    0.79000002    0.05000000
   21.71500015  148.77799988    0.79000002    0.05000000
   21.71750069  143.80400085    0.79000002    0.05000000
   21.71861076  146.63699341    0.79000002    0.05000000
   21.72194481  142.94400024    0.79000002    0.05000000
   21.72527885  139.41099548    0.79000002    0.05000000
   21.72833443  150.97500610    0.79000002    0.05000000
   21.73166656  150.91400146    0.79000002    0.05000000
   21.73500061  152.01400757    0.79000002    0.05000000
   21.73805618  142.59500122    0.79000002    0.05000000
   21.74416733  142.59500122    0.79000002    0.05000000
   21.74805641  148.04899597    0.79000002    0.05000000
   21.75083351  147.17300415    0.79000002    0.05000000
   21.75166702  146.79299927    0.79000002    0.05000000
   21.75499916  143.37100220    0.79000002    0.05000000
   21.75833321  146.64999390    0.79000002    0.05000000
   21.76138878  141.12399292    0.79000002    0.05000000
   21.76472282  142.58000183    0.79000002    0.05000000
   21.76805496  141.18299866    0.79000002    0.05000000
   21.77111053  143.21299744    0.79000002    0.05000000
   21.77444458  147.47599792    0.79000002    0.05000000
   21.77750015  142.00000000    0.79000002    0.05000000
   21.78083229  146.61700439    0.79000002    0.05000000
   21.78694344  146.61700439    0.79000002    0.05000000
   21.79111099  145.63999939    0.79000002    0.05000000
   21.79416656  148.32299805    0.79000002    0.05000000
   21.79749870  144.30900574    0.79000002    0.05000000
   21.80083275  146.99899292    0.79000002    0.05000000
   21.80388832  143.19900513    0.79000002    0.05000000
   21.80722237  147.20199585    0.79000002    0.05000000
   21.81055450  140.73199463    0.79000002    0.05000000
   21.81361008  145.07600403    0.79000002    0.05000000
   21.81694603  145.81399536    0.79000002    0.05000000
   21.81777954  143.16299438    0.79000002    0.05000000
   21.82055664  149.85499573    0.79000002    0.05000000
   21.82361221  150.31399536    0.79000002    0.05000000
   21.82972336  150.31399536    0.79000002    0.05000000
   21.83388901  148.35699463    0.79000002    0.05000000
   21.83722305  145.27299500    0.79000002    0.05000000
   21.84027863  157.27099609    0.79000002    0.05000000
   21.84361267  172.60600281    0.79000002    0.05000000
   21.84666824  162.28999329    0.79000002    0.05000000
   21.85000038  169.90499878    0.79000002    0.05000000
   21.85111237  163.13499451    0.79000002    0.05000000
   21.85361099  168.52099609    0.79000002    0.05000000
   21.85666656  155.17300415    0.79000002    0.05000000
   21.86000061  173.92999268    0.79000002    0.05000000
   21.86333466  168.19900513    0.79000002    0.05000000
   21.86638832  179.02799988    0.79000002    0.05000000
   21.87249947  179.02799988    0.79000002    0.05000000
   21.87666702  199.58399963    0.79000002    0.05000000
   21.88000107  229.89199829    0.79000002    0.05000000
   21.88333321  216.13600159    0.79000002    0.05000000
   21.88472176  238.41900635    0.79000002    0.05000000
   21.88694382  214.75999451    0.79000002    0.05000000
   21.88999939  252.41600037    0.79000002    0.05000000
   21.89333344  248.81599426    0.79000002    0.05000000
   21.89638901  211.57400513    0.79000002    0.05000000
   21.89972115  221.44200134    0.79000002    0.05000000
   21.90305519  227.31599426    0.79000002    0.05000000
   21.90611076  255.43499756    0.79000002    0.05000000
   21.90944481  293.84600830    0.79000002    0.05000000
   21.91555595  293.84600830    0.79000002    0.05000000
   21.93388748   -1.00000000    0.79000002    0.05000000
   21.93694305   -1.00000000    0.79000002    0.05000000
   21.94027710   -1.00000000    0.79000002    0.05000000
   21.94361115   -1.00000000    0.79000002    0.05000000
   21.94666672   -1.00000000    0.79000002    0.05000000
   21.95000076   -1.00000000    0.79000002    0.05000000
