    HOUR (UT)   FLARE FACTOR    SKY TESTER    SUN TESTER
   11.75638866   -1.00000000   -1.00000000   -1.00000000
   11.79027843  171.18699646    0.00000000    0.00000000
   11.79361153  181.94700623    0.00000000    0.00000000
   11.79666710  170.38900757    0.00000000    0.00000000
   11.80000019  164.25799561    0.00000000    0.00000000
   11.80333328  163.28100586    0.00000000    0.00000000
   11.80638885  161.52900696    0.00000000    0.00000000
   11.81055546  161.52900696    0.00000000    0.00000000
   11.81472206  164.22200012    0.00000000    0.00000000
   11.81805515  172.04400635    0.00000000    0.00000000
   11.82111073  167.90499878    0.00000000    0.00000000
   11.82361126  173.36300659    0.00000000    0.00000000
   11.82499981  168.71099854    0.00000000    0.00000000
   11.82833290  164.50000000    0.00000000    0.00000000
   11.83166695  172.24899292    0.00000000    0.00000000
   11.83472157  169.66000366    0.00000000    0.00000000
   11.83805561  160.30999756    0.00000000    0.00000000
   11.84138870  156.42300415    0.00000000    0.00000000
   11.84444427  161.54699707    0.00000000    0.00000000
   11.84777737  166.13000488    0.00000000    0.00000000
   11.85333347  166.13000488    0.00000000    0.00000000
   11.85750008  169.18600464    0.00000000    0.00000000
   11.86083412  167.01400757    0.00000000    0.00000000
   11.86388969  155.01800537    0.00000000    0.00000000
   11.86722279  156.74099731    0.00000000    0.00000000
   11.87055588  157.36199951    0.00000000    0.00000000
   11.87361145  150.71099854    0.00000000    0.00000000
   11.87694454  161.04499817    0.00000000    0.00000000
   11.88000011  156.72200012    0.00000000    0.00000000
   11.88333321  151.90299988    0.00000000    0.00000000
   11.88666630  145.31399536    0.00000000    0.00000000
   11.88972187  157.39300537    0.00000000    0.00000000
   11.89027786  163.33099365    0.00000000    0.00000000
   11.89638901  163.33099365    0.00000000    0.00000000
   11.90027714  160.96800232    0.00000000    0.00000000
   11.90361118  157.52299500    0.00000000    0.00000000
   11.90694427  161.24000549    4.00000000    2.21000004
   11.90999985  157.28399658    4.00000000    2.21000004
   11.91333294  167.18299866    4.00000000    2.21000004
   11.91666698  153.00500488    4.00000000    2.21000004
   11.91972256  157.28300476    4.00000000    2.21000004
   11.92305565  152.70899963    4.00000000    2.21000004
   11.92361164  151.30799866    4.00000000    2.21000004
   11.92666721  158.81500244    4.00000000    2.21000004
   11.93000031  158.75000000    4.00000000    2.21000004
   11.93305588  154.44599915    4.00000000    2.21000004
   11.93916702  154.44599915    4.00000000    2.21000004
   11.94333363  155.11399841    4.00000000    2.21000004
   11.94638920  152.13800049    4.00000000    2.21000004
   11.94972229  149.82600403    4.00000000    2.21000004
   11.95305538  155.00000000    4.00000000    2.21000004
   11.95611095  149.95599365    4.00000000    2.21000004
   11.95694447  156.46099854    4.00000000    2.21000004
   11.95972157  153.46200562    4.00000000    2.21000004
   11.96305561  162.38099670    4.00000000    2.21000004
   11.96611118  149.49699402    4.00000000    2.21000004
   11.96999931  154.92599487    4.00000000    2.21000004
   11.97333336  156.16700745    4.00000000    2.21000004
   11.97638798  157.59800720    4.00000000    2.21000004
   11.98194408  157.59800720    4.00000000    2.21000004
   11.98611164  146.70700073    4.00000000    2.21000004
   11.98944473  156.34899902    4.00000000    2.21000004
   11.99027824  148.48300171    4.00000000    2.21000004
   11.99305534  149.13099670    4.00000000    2.21000004
   11.99638939  156.57099915    4.00000000    2.21000004
   11.99944496  145.62100220    4.00000000    2.21000004
   12.00277805  141.71499634    4.00000000    2.21000004
   12.00611115  146.36799622    4.00000000    2.21000004
   12.00916672  148.64199829    4.00000000    2.21000004
   12.01249981  147.09599304    4.00000000    2.21000004
   12.01555538  146.55099487    4.00000000    2.21000004
   12.01888847  139.78599548    4.00000000    2.21000004
   12.02472210  139.78599548    4.00000000    2.21000004
   12.02888870  148.13699341    4.00000000    2.21000004
   12.03222179  164.71200562    4.00000000    2.21000004
   12.03527832  154.18699646    4.00000000    2.21000004
   12.03861141  146.62399292    4.00000000    2.21000004
   12.04194450  143.12399292    4.00000000    2.21000004
   12.04500008  150.47700500    4.00000000    2.21000004
   12.04833412  152.62899780    4.00000000    2.21000004
   12.05138874  147.77699280    4.00000000    2.21000004
   12.05472279  149.60600281    4.00000000    2.21000004
   12.05694485  147.40299988    4.00000000    2.21000004
   12.05833340  136.41600037    4.00000000    2.21000004
   12.06166649  141.07200623    4.00000000    2.21000004
   12.06750011  141.07200623    4.00000000    2.21000004
   12.07166672  139.33500671    4.00000000    2.21000004
   12.07499981  144.77400208    4.00000000    2.21000004
   12.07833290  146.53199768    4.00000000    2.21000004
   12.08138847  149.85800171    4.00000000    2.21000004
   12.08472157  142.44200134    4.00000000    2.21000004
   12.08777714  150.09800720    4.00000000    2.21000004
   12.09027767  146.35000610    4.00000000    2.21000004
   12.09166622  144.09199524    4.00000000    2.21000004
   12.09499931  141.96699524    4.00000000    2.21000004
   12.09805489  137.82499695    4.00000000    2.21000004
   12.10138893  148.13400269    4.00000000    2.21000004
   12.10444450  139.71899414    4.00000000    2.21000004
   12.11055565  139.71899414    4.00000000    2.21000004
   12.11472225  143.03999329    4.00000000    2.21000004
   12.11777782  146.80799866    4.00000000    2.21000004
   12.12111092  144.08999634    4.00000000    2.21000004
   12.12361145  141.27200317    4.00000000    2.21000004
   12.12472248  136.13499451    4.00000000    2.21000004
   12.12805557  141.69400024    4.00000000    2.21000004
   12.13111115  140.22799683    4.00000000    2.21000004
   12.13444424  132.94200134    4.00000000    2.21000004
   12.13777733  147.91299438    4.00000000    2.21000004
   12.14083290  146.00500488    4.00000000    2.21000004
   12.14416695  150.88499451    4.00000000    2.21000004
   12.14722252  135.26400757    4.00000000    2.21000004
   12.15333271  135.26400757    4.00000000    2.21000004
   12.15749931  134.13900757    4.00000000    2.21000004
   12.16083336  161.56300354    4.00000000    2.21000004
   12.16388893  127.73000336    4.00000000    2.21000004
   12.16722298  139.92300415    4.00000000    2.21000004
   12.17138958  144.09899902    4.00000000    2.21000004
   12.17472267  144.03799438    4.00000000    2.21000004
   12.17777824  130.12199402    4.00000000    2.21000004
   12.18111134  134.29699707    4.00000000    2.21000004
   12.18416691  134.79800415    4.00000000    2.21000004
   12.18750000  140.46899414    4.00000000    2.21000004
   12.19027805  134.28999329    4.00000000    2.21000004
   12.19111156  139.50199890    4.00000000    2.21000004
   12.19611073  139.50199890    4.00000000    2.21000004
   12.20027733  141.90400696    4.00000000    2.21000004
   12.20361137  160.21699524    4.00000000    2.21000004
   12.20666695  133.76899719    4.00000000    2.21000004
   12.21000004  143.26600647    4.00000000    2.21000004
   12.21333313  150.69900513    4.00000000    2.21000004
   12.21666622  144.32299805    4.00000000    2.21000004
   12.21972179  145.22700500    4.00000000    2.21000004
   12.22305489  139.19099426    4.00000000    2.21000004
   12.22361088  133.86399841    4.00000000    2.21000004
   12.22666645  145.73699951    4.00000000    2.21000004
   12.22999954  136.58700562    4.00000000    2.21000004
   12.23305511  138.34399414    4.00000000    2.21000004
   12.23888874  138.34399414    4.00000000    2.21000004
   12.24305534  131.73699951    4.00000000    2.21000004
   12.24638939  140.44599915    4.00000000    2.21000004
   12.24972248  143.19500732    4.00000000    2.21000004
   12.25277805  148.67599487    4.00000000    2.21000004
   12.25611115  139.91200256    4.00000000    2.21000004
   12.25694466  135.07099915    4.00000000    2.21000004
   12.25972176  135.58700562    4.00000000    2.21000004
   12.26305580  136.07400513    4.00000000    2.21000004
   12.26611137  142.59899902    4.00000000    2.21000004
   12.26944447  131.58200073    4.00000000    2.21000004
   12.27277756  141.79800415    4.00000000    2.21000004
   12.27583313  129.25500488    4.00000000    2.21000004
   12.28194427  129.25500488    4.00000000    2.21000004
   12.28611183  140.05000305    4.00000000    2.21000004
   12.28916740  129.20399475    4.00000000    2.21000004
   12.29027843  135.86599731    4.00000000    2.21000004
   12.29277802  124.62999725    4.00000000    2.21000004
   12.29611111  143.27799988    4.00000000    2.21000004
   12.29916668  141.60699463    4.00000000    2.21000004
   12.30249977  134.61999512    4.00000000    2.21000004
   12.30583382  126.40799713    4.00000000    2.21000004
   12.30888939  138.34500122    4.00000000    2.21000004
   12.31222248  131.13699341    4.00000000    2.21000004
   12.31527805  135.35400391    4.00000000    2.21000004
   12.31861115  136.98199463    4.00000000    2.21000004
   12.32472229  136.98199463    4.00000000    2.21000004
   12.32888889  130.37800598    4.00000000    2.21000004
   12.33222198  133.68499756    4.00000000    2.21000004
   12.33527756  138.71600342    4.00000000    2.21000004
   12.33861065  129.98599243    4.00000000    2.21000004
   12.34166622  132.39199829    4.00000000    2.21000004
   12.34499931  129.87899780    4.00000000    2.21000004
   12.34833336  130.47599792    4.00000000    2.21000004
   12.35138893  133.29299927    4.00000000    2.21000004
   12.35472298  125.30100250    4.00000000    2.21000004
   12.35694504  144.76899719    4.00000000    2.21000004
   12.35833359  138.24000549    4.00000000    2.21000004
   12.36166668  128.16900635    4.00000000    2.21000004
   12.36750031  128.16900635    4.00000000    2.21000004
   12.37305546  135.28300476    4.00000000    2.21000004
   12.37611103  122.28099823    4.00000000    2.21000004
   12.37944412  129.44000244    4.00000000    2.21000004
   12.38277817  136.32600403    4.00000000    2.21000004
   12.38583279  131.79800415    4.00000000    2.21000004
   12.38916683  135.43299866    4.00000000    2.21000004
   12.39055538  126.45600128    4.00000000    2.21000004
   12.39277744  128.70599365    4.00000000    2.21000004
   12.39611053  147.30400085    4.00000000    2.21000004
   12.39916611  139.21499634    4.00000000    2.21000004
   12.40249920  130.99699402    4.00000000    2.21000004
   12.40583324  140.97900391    4.00000000    2.21000004
   12.41027737  140.97900391    4.00000000    2.21000004
   12.41444397  135.79899597    4.00000000    2.21000004
   12.41777802  142.19299316    4.00000000    2.21000004
   12.42111111  131.28799438    4.00000000    2.21000004
   12.42388916  132.94700623    4.00000000    2.21000004
   12.42444515  130.22999573    4.00000000    2.21000004
   12.42777824  133.66400146    4.00000000    2.21000004
   12.43083382  146.34199524    4.00000000    2.21000004
   12.43416691  136.80499268    4.00000000    2.21000004
   12.43750000  140.61399841    4.00000000    2.21000004
   12.44055557  141.65400696    4.00000000    2.21000004
   12.44388866  131.47500610    4.00000000    2.21000004
   12.44722271  135.06900024    4.00000000    2.21000004
   12.45333290  135.06900024    4.00000000    2.21000004
   12.45749950  134.97399902    4.00000000    2.21000004
   12.46055508  149.49699402    4.00000000    2.21000004
   12.46388912  130.79800415    4.00000000    2.21000004
   12.46694374  132.18299866    4.00000000    2.21000004
   12.47027779  140.32699585    4.00000000    2.21000004
   12.47361088  131.16000366    4.00000000    2.21000004
   12.47666645  141.92100525    4.00000000    2.21000004
   12.47999954  139.02900696    4.00000000    2.21000004
   12.48361111  145.38900757    4.00000000    2.21000004
   12.48694515  139.09399414    4.00000000    2.21000004
   12.49000072  139.62100220    4.00000000    2.21000004
   12.49055576  146.73599243    4.00000000    2.21000004
   12.49611092  146.73599243    4.00000000    2.21000004
   12.50027752  142.00000000    4.00000000    2.21000004
   12.50333309  138.96099854    4.00000000    2.21000004
   12.50666714  143.17999268    4.00000000    2.21000004
   12.51000023  137.96600342    4.00000000    2.21000004
   12.51305580  137.25100708    4.00000000    2.21000004
   12.51638889  145.84800720    4.00000000    2.21000004
   12.51944447  142.44099426    4.00000000    2.21000004
   12.52277756  131.09399414    4.00000000    2.21000004
   12.52388859  138.35400391    4.00000000    2.21000004
   12.52638817  134.90600586    4.00000000    2.21000004
   12.52944374  133.14900208    4.00000000    2.21000004
   12.53277779  136.77799988    4.00000000    2.21000004
   12.53888893  136.77799988    4.00000000    2.21000004
   12.54305553  134.63099670    4.00000000    2.21000004
   12.54638958  128.85699463    4.00000000    2.21000004
   12.54944515  134.75399780    4.00000000    2.21000004
   12.55277824  131.47000122    4.00000000    2.21000004
   12.55611134  135.42399597    4.00000000    2.21000004
   12.55722237  148.86700439    4.00000000    2.21000004
   12.55972195  128.28900146    4.00000000    2.21000004
   12.56277752  135.01499939    4.00000000    2.21000004
   12.56611156  136.09899902    4.00000000    2.21000004
   12.56944466  135.71299744    4.00000000    2.21000004
   12.57305527  137.00000000    4.00000000    2.21000004
   12.57638836  146.94900513    4.00000000    2.21000004
   12.58166695  146.94900513    4.00000000    2.21000004
   12.58583260  140.62399292    4.00000000    2.21000004
   12.58916664  143.32499695    4.00000000    2.21000004
   12.59055519  132.55799866    4.00000000    2.21000004
   12.59277725  146.36900330    4.00000000    2.21000004
   12.59583282  141.12800598    4.00000000    2.21000004
   12.59916592  135.30900574    4.00000000    2.21000004
   12.60249996  140.27299500    4.00000000    2.21000004
   12.60555553  144.63000488    4.00000000    2.21000004
   12.60888958  142.75999451    4.00000000    2.21000004
   12.61222267  139.54499817    4.00000000    2.21000004
   12.61527824  146.62500000    4.00000000    2.21000004
   12.61861134  138.58200073    4.00000000    2.21000004
   12.62472248  138.58200073    4.00000000    2.21000004
   12.62861156  155.12500000    4.00000000    2.21000004
   12.63194466  149.00900269    4.00000000    2.21000004
   12.63527775  156.42300415    4.00000000    2.21000004
   12.63833332  152.49299622    4.00000000    2.21000004
   12.64166641  148.47700500    4.00000000    2.21000004
   12.64499950  154.07299805    4.00000000    2.21000004
   12.64805508  139.13099670    4.00000000    2.21000004
   12.65138817  139.85299683    4.00000000    2.21000004
   12.65444374  155.49899292    4.00000000    2.21000004
   12.65722179  137.73699951    4.00000000    2.21000004
   12.65833282  142.86700439    4.00000000    2.21000004
   12.66166592  158.45199585    4.00000000    2.21000004
   12.66750050  158.45199585    4.00000000    2.21000004
   12.67166710  153.98199463    4.00000000    2.21000004
   12.67472267  158.89100647    4.00000000    2.21000004
   12.67805576  160.44900513    4.00000000    2.21000004
   12.68138885  158.26899719    4.00000000    2.21000004
   12.68444443  152.17700195    4.00000000    2.21000004
   12.68777752  152.55599976    4.00000000    2.21000004
   12.69055557  158.58200073    4.00000000    2.21000004
   12.69138908  148.32600403    4.00000000    2.21000004
   12.69472218  143.00100708    4.00000000    2.21000004
   12.69777775  148.25900269    4.00000000    2.21000004
   12.70111084  155.81100464    4.00000000    2.21000004
   12.70416641  143.56599426    4.00000000    2.21000004
   12.71027756  143.56599426    4.00000000    2.21000004
   12.71444416  152.53799438    4.00000000    2.21000004
   12.71777725  169.85699463    4.00000000    2.21000004
   12.72083282  151.07899475    4.00000000    2.21000004
   12.72388840  173.63900757    4.00000000    2.21000004
   12.72444439  159.37800598    4.00000000    2.21000004
   12.72777748  170.57299805    4.00000000    2.21000004
   12.73083305  173.76400757    4.00000000    2.21000004
   12.73416710  169.65100098    4.00000000    2.21000004
   12.73722267  171.50199890    4.00000000    2.21000004
   12.74055576  167.63200378    4.00000000    2.21000004
   12.74388885  159.58200073    4.00000000    2.21000004
   12.74694443  156.25100708    4.00000000    2.21000004
   12.75305557  156.25100708    4.00000000    2.21000004
   12.75722218  155.27400208    4.00000000    2.21000004
   12.75777817  157.19400024    4.00000000    2.21000004
   12.76111126  148.80700684    4.00000000    2.21000004
   12.76416683  144.92100525    4.00000000    2.21000004
   12.76749992  176.98899841    4.00000000    2.21000004
   12.77055550  155.66000366    4.00000000    2.21000004
   12.77388859  154.22099304    4.00000000    2.21000004
   12.77722168  160.38499451    4.00000000    2.21000004
   12.78027725  148.36300659    4.00000000    2.21000004
   12.78361130  151.37399292    4.00000000    2.21000004
   12.78694534  157.63800049    4.00000000    2.21000004
   12.79000092  154.40400696    4.00000000    2.21000004
   12.79055595  153.04800415    4.00000000    2.21000004
   12.81138897  153.04800415    4.00000000    2.21000004
   12.81555557  162.34899902    4.00000000    2.21000004
   12.81888866  156.00900269    4.00000000    2.21000004
   12.82194424  153.74400330    4.00000000    2.21000004
   12.82388878  151.47799683    4.00000000    2.21000004
   12.82555580  156.07699585    4.00000000    2.21000004
   12.82888889  147.65100098    4.00000000    2.21000004
   12.83194447  144.92900085    4.00000000    2.21000004
   12.83527756  145.79699707    4.00000000    2.21000004
   12.83861065  149.39799500    4.00000000    2.21000004
   12.84166622  158.27900696    4.00000000    2.21000004
   12.84499931  148.83200073    4.00000000    2.21000004
   12.84805489  137.10400391    4.00000000    2.21000004
   12.85416698  137.10400391    4.00000000    2.21000004
   12.85833359  158.45199585    4.00000000    2.21000004
   12.86166668  156.65400696    4.00000000    2.21000004
   12.86472225  160.39500427    4.00000000    2.21000004
   12.86805534  147.85899353    4.00000000    2.21000004
   12.87138939  162.37399292    4.00000000    2.21000004
   12.87444496  152.73399353    4.00000000    2.21000004
   12.87777805  165.06700134    4.00000000    2.21000004
   12.88111115  133.45300293    4.00000000    2.21000004
   12.88416672  147.05200195    4.00000000    2.21000004
   12.88749981  147.95199585    4.00000000    2.21000004
   12.89083290  157.00799561    4.00000000    2.21000004
   12.89111137  142.67100525    4.00000000    2.21000004
   12.89694405  142.67100525    4.00000000    2.21000004
   12.90111065  138.63999939    4.00000000    2.21000004
   12.90444374  146.88600159    4.00000000    2.21000004
   12.90749931  147.04899597    4.00000000    2.21000004
   12.91083336  155.17799377    4.00000000    2.21000004
   12.91416645  157.38200378    4.00000000    2.21000004
   12.91722298  145.88900757    4.00000000    2.21000004
   12.92055607  148.91400146    4.00000000    2.21000004
   12.92361164  150.81900024    4.00000000    2.21000004
   12.92416668  143.73100281    4.00000000    2.21000004
   12.92750072  152.66299438    4.00000000    2.21000004
   12.93083382  150.27000427    4.00000000    2.21000004
   12.93388939  132.59899902    4.00000000    2.21000004
   12.94000053  132.59899902    4.00000000    2.21000004
   12.94388866  157.86300659    4.00000000    2.21000004
   12.94722271  150.93899536    4.00000000    2.21000004
   12.95055580  153.86000061    4.00000000    2.21000004
   12.95361137  149.79200745    4.00000000    2.21000004
   12.95694447  148.31500244    4.00000000    2.21000004
   12.95749950  142.24000549    4.00000000    2.21000004
   12.96055508  157.11999512    4.00000000    2.21000004
   12.96388912  150.61900330    4.00000000    2.21000004
   12.96694374  168.94900513    4.00000000    2.21000004
   12.97027779  149.03999329    4.00000000    2.21000004
   12.97361088  154.67599487    4.00000000    2.21000004
   12.97666645  145.45399475    4.00000000    2.21000004
   12.98277760  145.45399475    4.00000000    2.21000004
   12.98694515  149.99000549    4.00000000    2.21000004
   12.99000072  141.48899841    4.00000000    2.21000004
   12.99083328  148.03399658    4.00000000    2.21000004
   12.99361134  142.44299316    4.00000000    2.21000004
   12.99694443  150.96200562    4.00000000    2.21000004
   13.00000000  149.02299500    4.00000000    2.21000004
   13.00333309  143.71899414    4.00000000    2.21000004
   13.00666714  144.83399963    4.00000000    2.21000004
   13.00972176  132.58700562    4.00000000    2.21000004
   13.01305580  145.83099365    4.00000000    2.21000004
   13.01611137  129.78300476    4.00000000    2.21000004
   13.01944447  138.35800171    4.00000000    2.21000004
   13.02555561  138.35800171    4.00000000    2.21000004
   13.02972221  126.98500061    4.00000000    2.21000004
   13.03277779  141.86399841    4.00000000    2.21000004
   13.03611183  153.75000000    4.00000000    2.21000004
   13.03944492  146.11799622    4.00000000    2.21000004
   13.04250050  151.78799438    4.00000000    2.21000004
   13.04583359  127.09400177    4.00000000    2.21000004
   13.04916668  139.32400513    4.00000000    2.21000004
   13.05222225  144.68600464    4.00000000    2.21000004
   13.05555534  151.82099915    4.00000000    2.21000004
   13.05749989  160.93099976    4.00000000    2.21000004
   13.05916691  137.90699768    4.00000000    2.21000004
   13.06250000  135.83399963    4.00000000    2.21000004
   13.06833363  135.83399963    4.00000000    2.21000004
   13.07250023  129.83599854    4.00000000    2.21000004
   13.07583332  146.26199341    4.00000000    2.21000004
   13.07888889  142.07299805    4.00000000    2.21000004
   13.08222198  133.69700623    4.00000000    2.21000004
   13.08555508  148.25000000    4.00000000    2.21000004
   13.08861065  141.34700012    4.00000000    2.21000004
   13.09083271  139.57000732    4.00000000    2.21000004
   13.09222221  147.34199524    4.00000000    2.21000004
   13.09555531  128.59500122    4.00000000    2.21000004
   13.09861088  138.05499268    4.00000000    2.21000004
   13.10194492  136.11300659    4.00000000    2.21000004
   13.10527802  140.96800232    4.00000000    2.21000004
   13.11111164  140.96800232    4.00000000    2.21000004
   13.11527824  143.96499634    4.00000000    2.21000004
   13.11861134  136.69999695    4.00000000    2.21000004
   13.12194443  145.31500244    4.00000000    2.21000004
   13.12416649  141.85899353    4.00000000    2.21000004
   13.12555599  148.00500488    4.00000000    2.21000004
   13.12888908  142.71699524    4.00000000    2.21000004
   13.13194466  135.30599976    4.00000000    2.21000004
   13.13527775  140.63499451    4.00000000    2.21000004
   13.13861084  154.27099609    4.00000000    2.21000004
   13.14166641  154.71299744    4.00000000    2.21000004
   13.14499950  149.13299561    4.00000000    2.21000004
   13.14833355  137.11599731    4.00000000    2.21000004
   13.15416622  137.11599731    4.00000000    2.21000004
   13.15833282  140.97599792    4.00000000    2.21000004
   13.16138840  126.52400208    4.00000000    2.21000004
   13.16472149  143.98599243    4.00000000    2.21000004
   13.16777802  145.40699768    4.00000000    2.21000004
   13.17111111  145.49000549    4.00000000    2.21000004
   13.17500019  136.96600342    4.00000000    2.21000004
   13.17833328  139.92399597    4.00000000    2.21000004
   13.18138885  141.27200317    4.00000000    2.21000004
   13.18472195  147.78300476    4.00000000    2.21000004
   13.18805599  135.33599854    4.00000000    2.21000004
   13.19111156  145.06599426    4.00000000    2.21000004
   13.19166660  147.99899292    4.00000000    2.21000004
   13.19694424  147.99899292    4.00000000    2.21000004
   13.20111084  138.57600403    4.00000000    2.21000004
   13.20416641  141.47399902    4.00000000    2.21000004
   13.20749950  143.78100586    4.00000000    2.21000004
   13.21083355  153.87899780    4.00000000    2.21000004
   13.21388912  139.97399902    4.00000000    2.21000004
   13.21722221  143.64500427    4.00000000    2.21000004
   13.22055531  134.53100586    4.00000000    2.21000004
   13.22361088  140.10200500    4.00000000    2.21000004
   13.22444439  132.39700317    4.00000000    2.21000004
   13.22722149  126.65699768    4.00000000    2.21000004
   13.23055553  135.10000610    4.00000000    2.21000004
   13.23388958  139.07000732    4.00000000    2.21000004
   13.23972225  139.07000732    4.00000000    2.21000004
   13.24388885  143.28900146    4.00000000    2.21000004
   13.24722290  145.43200684    4.00000000    2.21000004
   13.25027752  145.86599731    4.00000000    2.21000004
   13.25361156  126.80999756    4.00000000    2.21000004
   13.25694466  130.91400146    4.00000000    2.21000004
   13.25777817  136.91200256    4.00000000    2.21000004
   13.26027775  121.12799835    4.00000000    2.21000004
   13.26361084  142.35499573    4.00000000    2.21000004
   13.26666641  130.43299866    4.00000000    2.21000004
   13.26999950  129.40299988    4.00000000    2.21000004
   13.27333355  137.33000183    4.00000000    2.21000004
   13.27638817  122.83000183    4.00000000    2.21000004
   13.28277779  122.83000183    4.00000000    2.21000004
   13.28666687  130.23100281    4.00000000    2.21000004
   13.29000092  135.40600586    4.00000000    2.21000004
   13.29111195  125.56400299    4.00000000    2.21000004
   13.29361153  132.81799316    4.00000000    2.21000004
   13.29694462  128.30599976    4.00000000    2.21000004
   13.30000019  131.22399902    4.00000000    2.21000004
   13.30333328  136.02200317    4.00000000    2.21000004
   13.30666733  132.81300354    4.00000000    2.21000004
   13.31000042  138.62699890    4.00000000    2.21000004
   13.31305599  123.25099945    4.00000000    2.21000004
   13.31638908  141.68600464    4.00000000    2.21000004
   13.31944466  138.69000244    4.00000000    2.21000004
   13.32555580  138.69000244    4.00000000    2.21000004
   13.32972240  124.63700104    4.00000000    2.21000004
   13.33277798  134.65100098    4.00000000    2.21000004
   13.33611107  135.13400269    4.00000000    2.21000004
   13.33916664  141.86300659    4.00000000    2.21000004
   13.34249973  125.59400177    4.00000000    2.21000004
   13.34583282  124.33799744    4.00000000    2.21000004
   13.34888840  123.49500275    4.00000000    2.21000004
   13.35222244  117.41500092    4.00000000    2.21000004
   13.35555553  129.35800171    4.00000000    2.21000004
   13.35777855  129.71400452    4.00000000    2.21000004
   13.35888958  133.78100586    4.00000000    2.21000004
   13.36222267  125.04599762    4.00000000    2.21000004
   13.36833382  125.04599762    4.00000000    2.21000004
   13.37250042  139.52400208    4.00000000    2.21000004
   13.37583351  147.01800537    4.00000000    2.21000004
   13.37888908  133.01300049    4.00000000    2.21000004
   13.38222218  133.70100403    4.00000000    2.21000004
   13.38555527  131.13699341    4.00000000    2.21000004
   13.38861084  131.90899658    4.00000000    2.21000004
   13.39111137  138.25900269    4.00000000    2.21000004
   13.39222240  136.19299316    4.00000000    2.21000004
   13.39555550  129.09399414    4.00000000    2.21000004
   13.39861107  132.41499329    4.00000000    2.21000004
   13.40194416  134.48699951    4.00000000    2.21000004
   13.40527725  133.70300293    4.00000000    2.21000004
   13.41111088  133.70300293    4.00000000    2.21000004
   13.41527748  131.83700562    4.00000000    2.21000004
   13.41861153  121.83100128    4.00000000    2.21000004
   13.42166710  121.43299866    4.00000000    2.21000004
   13.42444515  136.19999695    4.00000000    2.21000004
   13.42527771  129.22099304    4.00000000    2.21000004
   13.42861176  138.91799927    4.00000000    2.21000004
   13.43166733  129.24499512    4.00000000    2.21000004
   13.43500042  137.41600037    4.00000000    2.21000004
   13.43833351  131.78199768    4.00000000    2.21000004
   13.44138908  135.96699524    4.00000000    2.21000004
   13.44472218  138.50000000    4.00000000    2.21000004
   13.44805527  133.95199585    4.00000000    2.21000004
   13.45416641  133.95199585    4.00000000    2.21000004
   13.45805550  130.41600037    4.00000000    2.21000004
   13.46138859  139.20599365    4.00000000    2.21000004
   13.46472168  121.61199951    4.00000000    2.21000004
   13.46777725  136.29699707    4.00000000    2.21000004
   13.47111034  122.12899780    4.00000000    2.21000004
   13.47444439  133.32800293    4.00000000    2.21000004
   13.47749996  134.14199829    4.00000000    2.21000004
   13.48083305  134.71800232    4.00000000    2.21000004
   13.48388958  124.43499756    4.00000000    2.21000004
   13.48722267  134.74499512    4.00000000    2.21000004
   13.49055576  125.03600311    4.00000000    2.21000004
   13.49111176  137.71499634    4.00000000    2.21000004
   13.49694443  137.71499634    4.00000000    2.21000004
   13.50111103  127.19200134    4.00000000    2.21000004
   13.50416660  138.01400757    4.00000000    2.21000004
   13.50749969  133.83799744    4.00000000    2.21000004
   13.51055527  129.78399658    4.00000000    2.21000004
   13.51388931  136.52699280    4.00000000    2.21000004
   13.51722240  134.58500671    4.00000000    2.21000004
   13.52027798  130.91700745    4.00000000    2.21000004
   13.52361107  133.65699768    4.00000000    2.21000004
   13.52444458  132.11199951    4.00000000    2.21000004
   13.52722168  130.74200439    4.00000000    2.21000004
   13.53055573  141.67700195    4.00000000    2.21000004
   13.53388977  134.42799377    4.00000000    2.21000004
   13.53972244  134.42799377    4.00000000    2.21000004
   13.54388905  122.37100220    4.00000000    2.21000004
   13.54722309  127.21800232    4.00000000    2.21000004
   13.55027771  132.73500061    4.00000000    2.21000004
   13.55361176  123.31099701    4.00000000    2.21000004
   13.55666733  127.55300140    4.00000000    2.21000004
   13.55777836  140.84100342    4.00000000    2.21000004
   13.56027794  137.37800598    4.00000000    2.21000004
   13.56361103  126.65100098    4.00000000    2.21000004
   13.56694412  127.49400330    4.00000000    2.21000004
   13.57027817  119.76999664    4.00000000    2.21000004
   13.57333374  117.44999695    4.00000000    2.21000004
   13.57777786  123.83000183    4.00000000    2.21000004
   13.58249950  123.83000183    4.00000000    2.21000004
   13.58666611  135.26199341    4.00000000    2.21000004
   13.59000015  131.48500061    4.00000000    2.21000004
   13.59111118  128.86799622    4.00000000    2.21000004
   13.59333324  127.37699890    4.00000000    2.21000004
   13.59666634  130.85200500    4.00000000    2.21000004
   13.60000038  125.22399902    4.00000000    2.21000004
   13.60305595  133.76600647    4.00000000    2.21000004
   13.60638905  127.71299744    4.00000000    2.21000004
   13.60972214  135.13299561    4.00000000    2.21000004
   13.61277771  134.46699524    4.00000000    2.21000004
   13.61611176  136.28500366    4.00000000    2.21000004
   13.61944485  131.68099976    4.00000000    2.21000004
   13.62555599  131.68099976    4.00000000    2.21000004
   13.62944412  134.22799683    4.00000000    2.21000004
   13.63277817  123.55599976    4.00000000    2.21000004
   13.63611126  130.15499878    4.00000000    2.21000004
   13.63916683  128.64300537    4.00000000    2.21000004
   13.64249992  128.78900146    4.00000000    2.21000004
   13.64555550  133.50700378    4.00000000    2.21000004
   13.64888859  128.68699646    4.00000000    2.21000004
   13.65222168  132.82600403    4.00000000    2.21000004
   13.65527725  131.98599243    4.00000000    2.21000004
   13.65777779  134.40600586    4.00000000    2.21000004
   13.65916634  130.24699402    4.00000000    2.21000004
   13.66222191  128.08700562    4.00000000    2.21000004
   13.66833401  128.08700562    4.00000000    2.21000004
   13.67250061  125.62100220    4.00000000    2.21000004
   13.67555618  132.49499512    4.00000000    2.21000004
   13.67888927  122.19300079    4.00000000    2.21000004
   13.68194485  115.09700012    4.00000000    2.21000004
   13.68527794  127.05000305    4.00000000    2.21000004
   13.68861103  118.06600189    4.00000000    2.21000004
   13.69111156  116.52899933    4.00000000    2.21000004
   13.69194412  123.60900116    4.00000000    2.21000004
   13.69527817  133.02499390    4.00000000    2.21000004
   13.69861126  124.96299744    4.00000000    2.21000004
   13.70166683  123.34100342    4.00000000    2.21000004
   13.70499992  124.07900238    4.00000000    2.21000004
   13.71111107  124.07900238    4.00000000    2.21000004
   13.71527767  117.19400024    4.00000000    2.21000004
   13.71833324  119.62100220    4.00000000    2.21000004
   13.72166634  142.72799683    4.00000000    2.21000004
   13.72444439  217.86999512    4.00000000    2.21000004
   13.72555542  157.34500122    4.00000000    2.21000004
   13.72861099  130.95100403    4.00000000    2.21000004
   13.73194408  128.15499878    4.00000000    2.21000004
   13.73500061  121.98500061    4.00000000    2.21000004
   13.73833370  135.95500183    4.00000000    2.21000004
   13.74166679  125.38600159    4.00000000    2.21000004
   13.74472237  122.15799713    4.00000000    2.21000004
   13.74805546  125.95500183    4.00000000    2.21000004
   13.75388908  125.95500183    4.00000000    2.21000004
   13.75805569  123.11399841    4.00000000    2.21000004
   13.76138878  119.48100281    4.00000000    2.21000004
   13.76444435  116.18399811    4.00000000    2.21000004
   13.76777744  129.11500549    4.00000000    2.21000004
   13.77111053  122.68000031    4.00000000    2.21000004
   13.77416611  121.97399902    4.00000000    2.21000004
   13.77777767  132.60600281    4.00000000    2.21000004
   13.78083324  130.75300598    4.00000000    2.21000004
   13.78416729  123.12899780    4.00000000    2.21000004
   13.78750038  132.60600281    4.00000000    2.21000004
   13.79055595  128.61300659    4.00000000    2.21000004
   13.79111195  126.83000183    4.00000000    2.21000004
   13.79666710  126.83000183    4.00000000    2.21000004
   13.80083370  121.14399719    4.00000000    2.21000004
   13.80416679  114.98600006    4.00000000    2.21000004
   13.80749989  128.98100281    4.00000000    2.21000004
   13.82499981  126.58999634    4.00000000    2.21000004
   13.82750034  130.55400085    4.00000000    2.21000004
   13.83055592  126.48500061    4.00000000    2.21000004
   13.83388901  133.17100525    4.00000000    2.21000004
   13.83972168  133.17100525    4.00000000    2.21000004
   13.84388828  124.60500336    4.00000000    2.21000004
   13.84722233  144.52099609    4.00000000    2.21000004
   13.85027790  126.61100006    4.00000000    2.21000004
   13.85361195  126.13099670    4.00000000    2.21000004
   13.85694504  118.42400360    4.00000000    2.21000004
   13.85833359  124.89600372    4.00000000    2.21000004
   13.86055565  126.71099854    4.00000000    2.21000004
   13.86388969  124.76200104    4.00000000    2.21000004
   13.86722279  120.43599701    4.00000000    2.21000004
   13.87027836  128.31700134    4.00000000    2.21000004
   13.87361145  128.30299377    4.00000000    2.21000004
   13.87666702  125.97899628    4.00000000    2.21000004
   13.88277817  125.97899628    4.00000000    2.21000004
   13.88666630  119.33899689    4.00000000    2.21000004
   13.89000034  131.90199280    4.00000000    2.21000004
   13.89166641  125.08499908    4.00000000    2.21000004
   13.89361095  117.25800323    4.00000000    2.21000004
   13.89694405  120.99400330    4.00000000    2.21000004
   13.90027714  123.86799622    4.00000000    2.21000004
   13.90333271  158.53700256    4.00000000    2.21000004
   13.90666676  122.15000153    4.00000000    2.21000004
   13.90999985  119.81999969    4.00000000    2.21000004
   13.91305542  124.13500214    4.00000000    2.21000004
   13.91638851  118.54599762    4.00000000    2.21000004
   13.91944504  117.08399963    4.00000000    2.21000004
   13.92555618  117.08399963    4.00000000    2.21000004
   13.92972279  115.50099945    4.00000000    2.21000004
   13.93277836  118.38400269    4.00000000    2.21000004
   13.93611145  116.81600189    4.00000000    2.21000004
   13.93944454  120.31400299    4.00000000    2.21000004
   13.94250011  118.27700043    4.00000000    2.21000004
   13.94583321  124.60500336    4.00000000    2.21000004
   13.94888878  115.10700226    4.00000000    2.21000004
   13.95222187  121.01300049    4.00000000    2.21000004
   13.95555496  116.01399994    4.00000000    2.21000004
   13.95833302  125.46499634    4.00000000    2.21000004
   13.95916653  117.47000122    4.00000000    2.21000004
   13.96249962  121.53399658    4.00000000    2.21000004
   13.96833324  121.53399658    4.00000000    2.21000004
   13.97249985  118.70899963    4.00000000    2.21000004
   13.97583294  113.25000000    4.00000000    2.21000004
   13.97888851  118.36599731    4.00000000    2.21000004
   13.98222160  119.08100128    4.00000000    2.21000004
   13.98555565  120.79499817    4.00000000    2.21000004
   13.98861122  123.61900330    4.00000000    2.21000004
   13.99166679  115.32599640    4.00000000    2.21000004
   13.99222279  116.32499695    4.00000000    2.21000004
   13.99555588  114.77700043    4.00000000    2.21000004
   13.99888897  118.19100189    4.00000000    2.21000004
   14.00194454  122.88600159    4.00000000    2.21000004
   14.00527763  117.60099792    4.00000000    2.21000004
   14.01111126  117.60099792    4.00000000    2.21000004
   14.01527786  112.79599762    4.00000000    2.21000004
   14.01861095  115.73300171    4.00000000    2.21000004
   14.02166653  118.42299652    4.00000000    2.21000004
   14.02499962  111.67500305    4.00000000    2.21000004
   14.02527714  116.73600006    4.00000000    2.21000004
   14.02861118  117.36699677    4.00000000    2.21000004
   14.03194427  117.37799835    4.00000000    2.21000004
   14.03500080  115.36000061    4.00000000    2.21000004
   14.03833389  122.77500153    4.00000000    2.21000004
   14.04138947  117.72599792    4.00000000    2.21000004
   14.04472256  120.14600372    4.00000000    2.21000004
   14.04805565  114.80599976    4.00000000    2.21000004
   14.05416679  114.80599976    4.00000000    2.21000004
   14.05833340  118.64299774    4.00000000    2.21000004
   14.05861092  121.62599945    4.00000000    2.21000004
   14.06194496  121.38500214    4.00000000    2.21000004
   14.06527805  115.72399902    4.00000000    2.21000004
   14.06833363  116.90599823    4.00000000    2.21000004
   14.07166672  111.66699982    4.00000000    2.21000004
   14.07472229  117.34700012    4.00000000    2.21000004
   14.07805538  121.67199707    4.00000000    2.21000004
   14.08138847  130.39799500    4.00000000    2.21000004
   14.08444405  111.37100220    4.00000000    2.21000004
   14.08777714  118.37100220    4.00000000    2.21000004
   14.09111118  116.11399841    4.00000000    2.21000004
   14.09166622  113.93399811    4.00000000    2.21000004
   14.09694386  113.93399811    4.00000000    2.21000004
   14.10111141  119.92299652    4.00000000    2.21000004
   14.10416698  109.21800232    4.00000000    2.21000004
   14.10750008  114.21800232    4.00000000    2.21000004
   14.11083412  115.30699921    4.00000000    2.21000004
   14.11388969  111.82900238    4.00000000    2.21000004
   14.11722279  115.49600220    4.00000000    2.21000004
   14.12027836  107.71299744    4.00000000    2.21000004
   14.12361145  112.20400238    4.00000000    2.21000004
   14.12500000  112.37100220    4.00000000    2.21000004
   14.12722206  123.24099731    4.00000000    2.21000004
   14.13055611  114.39099884    4.00000000    2.21000004
   14.13388920  115.70899963    4.00000000    2.21000004
   14.13972187  115.70899963    4.00000000    2.21000004
   14.14388847  115.97100067    4.00000000    2.21000004
   14.14722252  111.45200348    4.00000000    2.21000004
   14.15027714  117.95300293    4.00000000    2.21000004
   14.15361118  120.19799805    4.00000000    2.21000004
   14.15666676  105.24600220    4.00000000    2.21000004
   14.15833282  115.14700317    4.00000000    2.21000004
   14.16027737  113.34700012    4.00000000    2.21000004
   14.16361046  108.66699982    4.00000000    2.21000004
   14.16694450  112.48100281    4.00000000    2.21000004
   14.17000008  111.24800110    4.00000000    2.21000004
   14.17333412  112.38500214    4.00000000    2.21000004
   14.17666721  110.22399902    4.00000000    2.21000004
   14.18277836  110.22399902    4.00000000    2.21000004
   14.18694496  110.88800049    4.00000000    2.21000004
   14.19000053  121.01899719    4.00000000    2.21000004
   14.19166660  116.62400055    4.00000000    2.21000004
   14.19361115  113.55899811    4.00000000    2.21000004
   14.19694424  118.37599945    4.00000000    2.21000004
   14.20027733  115.58000183    4.00000000    2.21000004
   14.20333290  108.48300171    4.00000000    2.21000004
   14.20666695  113.97299957    4.00000000    2.21000004
   14.21000004  115.87799835    4.00000000    2.21000004
   14.21305561  112.47200012    4.00000000    2.21000004
   14.21638870  118.84100342    4.00000000    2.21000004
   14.21944427  112.40499878    4.00000000    2.21000004
   14.22555542  112.40499878    4.00000000    2.21000004
   14.22944355  126.69200134    4.00000000    2.21000004
   14.23277760  122.61900330    4.00000000    2.21000004
   14.23611164  123.02600098    4.00000000    2.21000004
   14.23916721  111.36699677    4.00000000    2.21000004
   14.24250031  116.56600189    4.00000000    2.21000004
   14.24583340  119.65299988    4.00000000    2.21000004
   14.24888897  118.87599945    4.00000000    2.21000004
   14.25222206  121.59899902    4.00000000    2.21000004
   14.25555515  118.18299866    4.00000000    2.21000004
   14.25833321  114.94200134    4.00000000    2.21000004
   14.25888920  106.50000000    4.00000000    2.21000004
   14.26222229  114.00599670    4.00000000    2.21000004
   14.26833344  114.00599670    4.00000000    2.21000004
   14.27250004  112.31999969    4.00000000    2.21000004
   14.27555561  111.51699829    4.00000000    2.21000004
   14.27888870  118.08499908    4.00000000    2.21000004
   14.28194427  111.09899902    4.00000000    2.21000004
   14.28527832  114.87500000    4.00000000    2.21000004
   14.28861141  110.66600037    4.00000000    2.21000004
   14.29166698  111.03099823    4.00000000    2.21000004
   14.29194450  117.57099915    4.00000000    2.21000004
   14.29527855  112.09300232    4.00000000    2.21000004
   14.29861164  111.80300140    4.00000000    2.21000004
   14.30166721  114.74199677    4.00000000    2.21000004
   14.30500031  107.83300018    4.00000000    2.21000004
   14.31111145  107.83300018    4.00000000    2.21000004
   14.31527805  120.68399811    4.00000000    2.21000004
   14.31833363  115.79900360    4.00000000    2.21000004
   14.32166672  115.65399933    4.00000000    2.21000004
   14.32499981  112.05799866    4.00000000    2.21000004
   14.32527733  111.19699860    4.00000000    2.21000004
   14.32861137  119.58499908    4.00000000    2.21000004
   14.33194447  111.66000366    4.00000000    2.21000004
   14.33500004  111.73999786    4.00000000    2.21000004
   14.33833313  111.89600372    4.00000000    2.21000004
   14.34166622  111.53399658    4.00000000    2.21000004
   14.34472179  114.75199890    4.00000000    2.21000004
   14.34805489  113.57499695    4.00000000    2.21000004
   14.35388947  113.57499695    4.00000000    2.21000004
   14.35805607  112.51499939    4.00000000    2.21000004
   14.35861111  112.12500000    4.00000000    2.21000004
   14.36194515  118.78900146    4.00000000    2.21000004
   14.36500072  116.11900330    4.00000000    2.21000004
   14.36833382  122.89099884    4.00000000    2.21000004
   14.37166691  135.29499817    4.00000000    2.21000004
   14.37472248  118.02899933    4.00000000    2.21000004
   14.37805557  111.31600189    4.00000000    2.21000004
   14.38138866  113.30799866    4.00000000    2.21000004
   14.38444424  117.65000153    4.00000000    2.21000004
   14.38777733  108.67099762    4.00000000    2.21000004
   14.39111137  116.92299652    4.00000000    2.21000004
   14.39194393  109.21600342    4.00000000    2.21000004
   14.39666653  109.21600342    4.00000000    2.21000004
   14.40083313  114.46800232    4.00000000    2.21000004
   14.40416622  108.73699951    4.00000000    2.21000004
   14.40749931  114.83999634    4.00000000    2.21000004
   14.41055489  115.29100037    4.00000000    2.21000004
   14.41388893  119.86100006    4.00000000    2.21000004
   14.41722298  116.45700073    4.00000000    2.21000004
   14.42027855  114.09500122    4.00000000    2.21000004
   14.42361164  113.89099884    4.00000000    2.21000004
   14.42527771  113.63700104    4.00000000    2.21000004
   14.42722225  107.58899689    4.00000000    2.21000004
   14.43027782  108.22799683    4.00000000    2.21000004
   14.43361092  106.48799896    4.00000000    2.21000004
   14.43972206  106.48799896    4.00000000    2.21000004
   14.44388866  115.24099731    4.00000000    2.21000004
   14.44694424  108.98200226    4.00000000    2.21000004
   14.45027733  114.12799835    4.00000000    2.21000004
   14.45333290  117.74800110    4.00000000    2.21000004
   14.45666695  107.83899689    4.00000000    2.21000004
   14.45861053  112.47200012    4.00000000    2.21000004
   14.46027756  108.86000061    4.00000000    2.21000004
   14.46333313  110.29599762    4.00000000    2.21000004
   14.46666622  114.02400208    4.00000000    2.21000004
   14.46999931  105.73100281    4.00000000    2.21000004
   14.47305489  112.07900238    4.00000000    2.21000004
   14.47638798  113.16899872    4.00000000    2.21000004
   14.48249912  113.16899872    4.00000000    2.21000004
   14.48666668  111.08100128    4.00000000    2.21000004
   14.48972225  110.19599915    4.00000000    2.21000004
   14.49194431  113.59700012    4.00000000    2.21000004
   14.49361134  113.43900299    4.00000000    2.21000004
   14.49694443  115.08000183    4.00000000    2.21000004
   14.50000000  117.55000305    4.00000000    2.21000004
   14.50333309  118.29499817    4.00000000    2.21000004
   14.50638866  108.82599640    4.00000000    2.21000004
   14.50972176  112.28900146    4.00000000    2.21000004
   14.51305580  115.07199860    4.00000000    2.21000004
   14.51611137  112.31199646    4.00000000    2.21000004
   14.51944447  113.98000336    4.00000000    2.21000004
   14.52527714  113.98000336    4.00000000    2.21000004
   14.52944374  111.25499725    4.00000000    2.21000004
   14.53277779  119.53299713    4.00000000    2.21000004
   14.53583336  112.67299652    4.00000000    2.21000004
   14.53916740  110.93800354    4.00000000    2.21000004
   14.54250050  113.19100189    4.00000000    2.21000004
   14.54555607  111.66699982    4.00000000    2.21000004
   14.54888916  118.00700378    4.00000000    2.21000004
   14.55194473  121.53900146    4.00000000    2.21000004
   14.55527782  111.43800354    4.00000000    2.21000004
   14.55861092  113.01200104    4.00000000    2.21000004
   14.56027794  103.03900146    4.00000000    2.21000004
   14.56222248  106.48999786    4.00000000    2.21000004
   14.56805515  106.48999786    4.00000000    2.21000004
   14.57222176  108.00399780    4.00000000    2.21000004
   14.57555580  111.92800140    4.00000000    2.21000004
   14.57888889  109.73400116    4.00000000    2.21000004
   14.58194447  100.66899872    4.00000000    2.21000004
   14.58527756  111.89900208    4.00000000    2.21000004
   14.58861065  114.56900024    4.00000000    2.21000004
   14.59166622  121.19400024    4.00000000    2.21000004
   14.59361076  109.12799835    4.00000000    2.21000004
   14.59527779  112.39600372    4.00000000    2.21000004
   14.59861088  110.38999939    4.00000000    2.21000004
   14.60166740  107.41799927    4.00000000    2.21000004
   14.60500050  107.16000366    4.00000000    2.21000004
   14.61111164  107.16000366    4.00000000    2.21000004
   14.61527824  115.57800293    4.00000000    2.21000004
   14.61833382  114.79699707    4.00000000    2.21000004
   14.62166691  113.56700134    4.00000000    2.21000004
   14.62472248  117.75299835    4.00000000    2.21000004
   14.62722206  109.47299957    4.00000000    2.21000004
   14.62861156  104.08899689    4.00000000    2.21000004
   14.63166714  103.38099670    4.00000000    2.21000004
   14.63500023  107.59100342    4.00000000    2.21000004
   14.63833332  106.23100281    4.00000000    2.21000004
   14.64138889  115.36399841    4.00000000    2.21000004
   14.64472198  109.63500214    4.00000000    2.21000004
   14.64805508  119.26000214    4.00000000    2.21000004
   14.65388870  119.26000214    4.00000000    2.21000004
   14.65805531  120.62599945    4.00000000    2.21000004
   14.66083336  107.36900330    4.00000000    2.21000004
   14.66166592  116.99600220    4.00000000    2.21000004
   14.66499996  111.88200378    4.00000000    2.21000004
   14.66833401  108.45899963    4.00000000    2.21000004
   14.67138958  114.04599762    4.00000000    2.21000004
   14.67472267  106.89299774    4.00000000    2.21000004
   14.67777824  116.37799835    4.00000000    2.21000004
   14.68111134  109.83300018    4.00000000    2.21000004
   14.68444443  108.65499878    4.00000000    2.21000004
   14.68750000  104.84700012    4.00000000    2.21000004
   14.69083309  110.22399902    4.00000000    2.21000004
   14.69666672  110.22399902    4.00000000    2.21000004
   14.70111084  113.43099976    4.00000000    2.21000004
   14.70416641  101.54100037    4.00000000    2.21000004
   14.70749950  111.01999664    4.00000000    2.21000004
   14.71055508  115.21600342    4.00000000    2.21000004
   14.71388912  102.88500214    4.00000000    2.21000004
   14.71722221  106.35199738    4.00000000    2.21000004
   14.72027779  116.82099915    4.00000000    2.21000004
   14.72361088  104.40499878    4.00000000    2.21000004
   14.72694397  106.61000061    4.00000000    2.21000004
   14.72749996  116.33599854    4.00000000    2.21000004
   14.73055553  105.19699860    4.00000000    2.21000004
   14.73388958  110.13099670    4.00000000    2.21000004
   14.73944473  110.13099670    4.00000000    2.21000004
   14.74361134  107.56099701    4.00000000    2.21000004
   14.74694443  111.05300140    4.00000000    2.21000004
   14.75027752  113.13200378    4.00000000    2.21000004
   14.75333309  108.05300140    4.00000000    2.21000004
   14.75666714  110.83100128    4.00000000    2.21000004
   14.76000023  111.40299988    4.00000000    2.21000004
   14.76083374  113.86599731    4.00000000    2.21000004
   14.76361084  103.02200317    4.00000000    2.21000004
   14.76694393   90.22290039    4.00000000    2.21000004
   14.76999950   -1.00000000    4.00000000    2.21000004
   14.77333355   -1.00000000    4.00000000    2.21000004
   14.77666664   -1.00000000    4.00000000    2.21000004
   14.78638935   -1.00000000    4.00000000    2.21000004
   14.78972244   -1.00000000    4.00000000    2.21000004
   14.79277802   -1.00000000    4.00000000    2.21000004
   14.79638958   -1.00000000    4.00000000    2.21000004
   14.79972267   -1.00000000    4.00000000    2.21000004
   14.80305576   -1.00000000    4.00000000    2.21000004
   14.80611134   -1.00000000    4.00000000    2.21000004
   14.80944443   -1.00000000    4.00000000    2.21000004
   14.81277752   -1.00000000    4.00000000    2.21000004
   14.81583309   -1.00000000    4.00000000    2.21000004
   14.81916618  244.63699341    4.00000000    2.21000004
   14.82527733  244.63699341    4.00000000    2.21000004
   14.84361076  115.73000336    4.00000000    2.21000004
   14.84694386  121.19300079    4.00000000    2.21000004
   14.85000038  114.58300018    4.00000000    2.21000004
   14.85333347  114.99400330    4.00000000    2.21000004
   14.85666752  109.32199860    4.00000000    2.21000004
   14.85972214  110.46399689    4.00000000    2.21000004
   14.86305618  112.98300171    4.00000000    2.21000004
   14.86833382  112.98300171    4.00000000    2.21000004
   14.87250042  113.58999634    4.00000000    2.21000004
   14.87583351  110.00499725    4.00000000    2.21000004
   14.87666702  109.86699677    4.00000000    2.21000004
   14.87944412  107.48100281    4.00000000    2.21000004
   14.88249969  111.26799774    4.00000000    2.21000004
   14.88583279  111.83999634    4.00000000    2.21000004
   14.88916683  107.98500061    4.00000000    2.21000004
   14.89222240  107.69899750    4.00000000    2.21000004
   14.89555550  112.77400208    4.00000000    2.21000004
   14.89888859  109.08100128    4.00000000    2.21000004
   14.90194416  111.54399872    4.00000000    2.21000004
   14.90527725  108.44499969    4.00000000    2.21000004
   14.91111088  108.44499969    4.00000000    2.21000004
   14.91527748  110.72899628    4.00000000    2.21000004
   14.91861153  111.39199829    4.00000000    2.21000004
   14.92194462  109.78600311    4.00000000    2.21000004
   14.92500019  115.46299744    4.00000000    2.21000004
   14.92833328  111.78299713    4.00000000    2.21000004
   14.93138885  110.33699799    4.00000000    2.21000004
   14.93472195  108.69799805    4.00000000    2.21000004
   14.93805599  107.13700104    4.00000000    2.21000004
   14.94111156  112.24900055    4.00000000    2.21000004
   14.94333363  109.86000061    4.00000000    2.21000004
   14.94499969  112.37699890    4.00000000    2.21000004
   14.94805527  107.36199951    4.00000000    2.21000004
   14.95416641  107.36199951    4.00000000    2.21000004
   14.95805550  113.56800079    4.00000000    2.21000004
   14.96138859  111.34700012    4.00000000    2.21000004
   14.96472168  125.67199707    4.00000000    2.21000004
   14.96777725  118.64199829    4.00000000    2.21000004
   14.97111034  117.74800110    4.00000000    2.21000004
   14.97444439  120.47499847    4.00000000    2.21000004
   14.97666645  117.62699890    4.00000000    2.21000004
   14.97805500  118.31700134    4.00000000    2.21000004
   14.98138809  107.76000214    4.00000000    2.21000004
   14.98472214  115.04000092    4.00000000    2.21000004
   14.98777771  115.89700317    4.00000000    2.21000004
   14.99111176  112.80000305    4.00000000    2.21000004
   14.99694443  112.80000305    4.00000000    2.21000004
   15.00111103  109.51300049    4.00000000    2.21000004
   15.00416660  109.26000214    4.00000000    2.21000004
   15.00749969  116.81500244    4.00000000    2.21000004
   15.01000023  112.15499878    4.00000000    2.21000004
   15.01111126  108.36699677    4.00000000    2.21000004
   15.01444435  108.77899933    4.00000000    2.21000004
   15.11833382   -1.00000000   -1.00000000   -1.00000000
   15.20583344   -1.00000000   -1.00000000   -1.00000000
   15.35166740   -1.00000000   -1.00000000   -1.00000000
   15.50555515   -1.00000000   -1.00000000   -1.00000000
   15.70638847   -1.00000000   -1.00000000   -1.00000000
   15.80361176   -1.00000000   -1.00000000   -1.00000000
   15.90361118   -1.00000000   -1.00000000   -1.00000000
   16.03194427   -1.00000000   -1.00000000   -1.00000000
   16.07166672  123.43499756    1.25000000    2.82999992
   16.07500076  111.38800049    1.25000000    2.82999992
   16.07833481  105.86000061    1.23000002    2.82999992
   16.08139038  117.11199951    1.16999996    2.80999994
   16.08472252  104.57700348    1.16999996    2.80999994
   16.08805656  106.32499695    1.16999996    2.80999994
   16.09194565  106.32499695    1.16999996    2.80999994
   16.09611130  107.39299774    1.13000000    2.82999992
   16.09944534  109.50399780    1.13000000    2.82999992
   16.10277748  111.39399719    1.13000000    2.82999992
   16.10499954   99.51170349    1.13000000    2.82999992
   16.10639000  104.42299652    1.13000000    2.82999992
   16.10944557  110.65799713    1.13000000    2.82999992
   16.11277771  105.46499634    1.11000001    2.82999992
   16.11611176  105.98000336    1.11000001    2.82999992
   16.11916733  106.90699768    1.11000001    2.82999992
   16.12249947  107.55699921    1.11000001    2.82999992
   16.12555504  108.37699890    1.11000001    2.82999992
   16.12888908  109.39099884    1.11000001    2.82999992
   16.13500023  109.39099884    1.13000000    2.80999994
   16.13916588  105.72699738    1.13000000    2.80999994
   16.14222145  102.96399689    1.13000000    2.82999992
   16.14555550  101.81199646    1.14999998    2.82999992
   16.14861107  102.68699646    1.14999998    2.82999992
   16.15194321   98.99320221    1.14999998    2.82999992
   16.15527725  108.29699707    1.14999998    2.82999992
   16.15833282  105.95500183    1.13000000    2.82999992
   16.16166687  100.55799866    1.13000000    2.82999992
   16.16499901  103.15299988    1.14999998    2.82999992
   16.16805458  106.98999786    1.14999998    2.82999992
   16.17138863  105.25199890    1.11000001    2.82999992
   16.17194366  103.61599731    1.11000001    2.82999992
   16.17777634  103.61599731    1.11000001    2.82999992
   16.18194389  104.02200317    1.11000001    2.82999992
   16.18499947  102.86900330    1.11000001    2.80999994
   16.18833160  103.44300079    1.11000001    2.82999992
   16.19166565  102.64600372    1.11000001    2.82999992
   16.19472122  101.40000153    1.13000000    2.82999992
   16.19805527  102.98799896    1.13000000    2.82999992
   16.20138931   92.54229736    1.11000001    2.82999992
   16.20444489   97.80519867    1.11000001    2.82999992
   16.20527840  105.25199890    1.11000001    2.82999992
   16.20833397   99.83339691    1.11000001    2.82999992
   16.21166801   95.83489990    1.11000001    2.82999992
   16.21472359  102.20200348    1.11000001    2.82999992
   16.22055626  102.20200348    1.11000001    2.82999992
   16.22472191  107.58699799    1.13000000    2.82999992
   16.22805595  105.30100250    1.09000003    2.80999994
   16.23111153  109.43800354    1.09000003    2.82999992
   16.23444557  118.11100006    1.09000003    2.82999992
   16.23777771  107.58999634    1.09000003    2.82999992
   16.23861122  109.04900360    1.09000003    2.82999992
   16.24111176  107.39499664    1.09000003    2.82999992
   16.24444389  107.25800323    1.07000005    2.82999992
   16.24777794  114.60099792    1.07000005    2.82999992
   16.25083351  122.94100189    1.07000005    2.82999992
   16.25416756  116.36900330    1.05999994    2.82999992
   16.25749969  122.66300201    1.05999994    2.82999992
   16.26333427  122.66300201    1.00000000    2.84999990
   16.26749992  119.89199829    1.00000000    2.82999992
   16.27083397  113.43800354    1.01999998    2.82999992
   16.27194405  107.41699982    1.01999998    2.82999992
   16.27472115  108.00199890    1.00000000    2.84999990
   16.27777672  114.46299744    1.00000000    2.84999990
   16.28111076  107.01100159    0.98000002    2.82999992
   16.28416634  111.13099670    0.98000002    2.84999990
   16.28750038  106.46099854    0.98000002    2.84999990
   16.29083252  106.80200195    0.98000002    2.82999992
   16.29388809  107.60500336    0.98000002    2.82999992
   16.29722214  110.55400085    0.98000002    2.82999992
   16.30055428  110.54100037    0.94000000    2.84999990
   16.30638885  110.54100037    0.94000000    2.84999990
   16.31055450   91.38339996    0.94000000    2.84999990
   16.31361008  109.69400024    0.94000000    2.84999990
   16.31694603  104.56500244    0.95999998    2.84999990
   16.32000160  102.62699890    2.00000000    2.86999989
   16.32333374  104.12599945    3.55999994    2.86999989
   16.32666779   99.77899933    3.23000002    2.86999989
   16.33000183   93.15499878    4.90999985    2.91000009
   16.33305550  106.34600067    4.90999985    2.46000004
   16.33638954  147.64399719    4.90999985    2.98000002
   16.33972359   -1.00000000    4.90999985    1.16999996
   16.34305573  140.82299805    4.90999985    0.88000000
   16.34916687  140.82299805    4.90999985    2.94000006
   16.35333443  106.90100098    4.90999985    2.94000006
   16.35639000  129.10000610    4.90999985    2.94000006
   16.35972214   98.72640228    4.90999985    2.91000009
   16.36305618   32.39699936    4.90999985    2.39000010
   16.36611176   -1.00000000    4.90999985    0.25000000
   16.36944389   -1.00000000    4.90999985    0.81999999
   16.37305641   -1.00000000    4.90999985    0.23000000
   16.37638855   -1.00000000    4.90999985    0.15000001
   16.37944412   -1.00000000    4.90999985    0.09000000
   16.38277817   -1.00000000    4.90999985    0.11000000
   16.38583374   -1.00000000    4.90999985    0.67000002
   16.39611053   -1.00000000    4.90999985    0.03000000
   16.39916611   -1.00000000    4.90999985    0.05000000
   16.40250015   -1.00000000    4.90999985    0.05000000
   16.40611076   -1.00000000    4.90999985    0.09000000
   16.40944481   -1.00000000    4.90999985    0.05000000
   16.41250038   -1.00000000    4.90999985    0.07000000
   16.41583252   -1.00000000    4.90999985    0.09000000
   16.41888809   -1.00000000    4.90999985    0.09000000
   16.42222214   98.71209717    4.90999985    2.57999992
   16.42555428  101.18399811    4.90999985    2.94000006
   16.42860985  107.21900177    4.90999985    2.91000009
   16.43472099  107.21900177    1.51999998    2.84999990
   16.43888855   92.01650238    1.23000002    2.82999992
   16.44222069   95.35009766    1.19000006    2.80999994
   16.44555473   98.96189880    1.21000004    2.80999994
   16.44861031  104.21800232    1.25000000    2.82999992
   16.45194435   99.27999878    1.23000002    2.80999994
   16.45499992   99.96040344    1.21000004    2.80999994
   16.45833397  106.02500153    1.21000004    2.82999992
   16.46166801  100.17500305    1.30999994    2.82999992
   16.46472359  102.59500122    1.19000006    2.82999992
   16.46805573  101.30799866    1.09000003    2.82999992
   16.47138977  111.65100098    1.07000005    2.82999992
   16.47194481  106.76200104    1.07000005    2.82999992
   16.47777748  106.76200104    1.05999994    2.82999992
   16.48166656  110.22599792    1.05999994    2.84999990
   16.48500061  104.76200104    1.05999994    2.82999992
   16.48833275  104.07499695    1.07000005    2.84999990
   16.49138832  103.94300079    1.05999994    2.84999990
   16.49472237   93.34609985    1.07000005    2.82999992
   16.49777794  101.98799896    1.07000005    2.82999992
   16.50111198  103.92299652    1.00000000    2.82999992
   16.50444412   99.28289795    1.00000000    2.84999990
   16.50527763   96.89550018    0.98000002    2.84999990
   16.50805473  105.75700378    0.98000002    2.84999990
   16.51138878  103.39199829    0.98000002    2.84999990
   16.51444435  100.33799744    1.00000000    2.84999990
   16.52055550  100.33799744    1.00000000    2.84999990
   16.52472115  105.61199951    1.01999998    2.84999990
   16.52777672  104.89800262    1.01999998    2.84999990
   16.53111076  103.13999939    1.01999998    2.84999990
   16.53416634   96.97139740    1.01999998    2.84999990
   16.53750038  102.46499634    1.00000000    2.82999992
   16.53861046  106.66100311    1.01999998    2.84999990
   16.54111099  106.21900177    1.01999998    2.84999990
   16.54444313  100.32700348    1.01999998    2.84999990
   16.54777718  102.31199646    1.01999998    2.84999990
   16.55083275  102.47399902    1.01999998    2.84999990
   16.55416679  101.66400146    1.00000000    2.84999990
   16.55749893   99.37599945    1.00000000    2.84999990
   16.56333351   99.37599945    1.00000000    2.82999992
   16.56750107  105.09400177    0.98000002    2.84999990
   16.57083511  101.95099640    0.98000002    2.84999990
   16.57194519  111.29000092    0.98000002    2.84999990
   16.57444572  105.70999908    0.95999998    2.84999990
   16.57750130  106.68000031    0.92000002    2.84999990
   16.58083344  111.17900085    0.92000002    2.84999990
   16.58416748  102.59899902    0.89999998    2.84999990
   16.58722305  105.28600311    0.89999998    2.86999989
   16.59055710  102.30000305    0.89999998    2.84999990
   16.59361267  105.86299896    0.89999998    2.84999990
   16.59694481  102.23799896    0.89999998    2.84999990
   16.60027885  108.97799683    0.88000000    2.84999990
   16.60611153  108.97799683    0.89999998    2.84999990
   16.61027908  101.44699860    0.89999998    2.84999990
   16.61361122  100.12999725    0.89999998    2.84999990
   16.61666679  103.82099915    0.89999998    2.84999990
   16.62000084  105.36599731    0.88000000    2.86999989
   16.62333298  104.19999695    0.88000000    2.84999990
   16.62638855  107.83599854    0.88000000    2.84999990
   16.62972260  105.34700012    0.86000001    2.86999989
   16.63305473   94.27290344    0.86000001    2.86999989
   16.63611031  106.79799652    0.86000001    2.86999989
   16.63861084  101.19599915    0.83999997    2.84999990
   16.63999939  102.44999695    0.83999997    2.84999990
   16.64305496   97.49890137    0.83999997    2.84999990
   16.64916611   97.49890137    0.86000001    2.84999990
   16.65333366   97.92379761    0.86000001    2.84999990
   16.65638924  101.23300171    0.86000001    2.84999990
   16.65972137  109.20500183    0.89999998    2.84999990
   16.66277695  105.14299774    1.16999996    2.84999990
   16.66611099  106.46399689    1.58000004    2.86999989
   16.66944313  102.69799805    1.96000004    2.84999990
   16.67194366  104.24199677    1.98000002    2.84999990
   16.67305565  111.87699890    0.92000002    2.84999990
   16.67611122  103.35299683    0.88000000    2.84999990
   16.67944336  106.00099945    0.86000001    2.84999990
   16.68249893  113.83000183    0.86000001    2.86999989
   16.68583298   97.56700134    0.86000001    2.84999990
   16.69194412   97.56700134    0.86000001    2.86999989
   16.69610977   97.71320343    0.83999997    2.84999990
   16.69916534   99.46790314    0.86000001    2.86999989
   16.70250130   99.07990265    0.88000000    2.86999989
   16.70527840  107.00299835    0.88000000    2.84999990
   16.70611191   96.81240082    0.88000000    2.84999990
   16.70916748   93.73699951    0.86000001    2.84999990
   16.71250153  102.17400360    0.86000001    2.84999990
   16.71555710  100.49900055    0.81999999    2.84999990
   16.71888924  109.17900085    0.81999999    2.86999989
   16.72222328   99.49019623    0.81999999    2.86999989
   16.72527885  110.70200348    0.81999999    2.86999989
   16.72861099   99.59799957    0.83999997    2.84999990
   16.73472214   99.59799957    0.86000001    2.86999989
   16.73888969  105.55100250    0.86000001    2.84999990
   16.74194527  104.01100159    0.86000001    2.84999990
   16.74527740  102.36299896    0.86000001    2.84999990
   16.74861145   97.38110352    0.86000001    2.86999989
   16.75166702  100.99299622    0.83999997    2.86999989
   16.75499916  109.92800140    0.83999997    2.84999990
   16.75833321   97.76609802    0.83999997    2.86999989
   16.76138878   93.99949646    0.83999997    2.86999989
   16.76472282  104.15599823    0.81999999    2.86999989
   16.76805496   95.98490143    0.81999999    2.86999989
   16.77111053   97.34480286    0.80000001    2.86999989
   16.77194405   99.85279846    0.80000001    2.86999989
   16.77750015   99.85279846    0.79000002    2.89000010
   16.78166580  103.00399780    0.79000002    2.84999990
   16.78499985   98.93499756    0.80000001    2.86999989
   16.78805542  110.33399963    0.80000001    2.86999989
   16.79138756  100.25900269    0.79000002    2.86999989
   16.79472160   92.62850189    0.76999998    2.86999989
   16.79777718   96.63939667    0.76999998    2.84999990
   16.80111122  100.97000122    0.76999998    2.84999990
   16.80416679  106.22699738    0.76999998    2.86999989
   16.80527687  100.19300079    0.76999998    2.86999989
   16.80805397   98.70600128    0.79000002    2.86999989
   16.81110954  103.50099945    0.76999998    2.86999989
   16.81444359   97.77400208    0.76999998    2.86999989
   16.82027817   97.77400208    0.76999998    2.86999989
   16.82444572  105.70899963    0.79000002    2.86999989
   16.82777786  101.92700195    0.79000002    2.86999989
   16.83111191   98.14610291    0.81999999    2.86999989
   16.83416748  101.20200348    0.80000001    2.86999989
   16.83750153  103.20700073    0.80000001    2.86999989
   16.83861160  102.03700256    0.80000001    2.86999989
   16.84111214  104.21299744    0.81999999    2.86999989
   16.84416771   98.93260193    0.81999999    2.86999989
   16.84749985  101.08599854    0.81999999    2.86999989
   16.85055542  106.26899719    0.81999999    2.86999989
   16.85388947  104.96600342    0.86000001    2.84999990
   16.85722351  103.05000305    0.86000001    2.86999989
   16.86333466  103.05000305    0.86000001    2.84999990
   16.86750031  229.16700745    1.03999996    2.84999990
   16.87055588  102.60299683    1.03999996    2.84999990
   16.87194443   97.77300262    1.36000001    2.86999989
   16.87444496   98.59480286    1.36000001    2.86999989
   16.87805557   98.35160065    1.53999996    2.86999989
   16.88111115  104.04299927    1.55999994    2.86999989
   16.88444519   92.63339996    1.34000003    2.86999989
   16.88750076   98.35549927    1.28999996    2.86999989
   16.89083290   96.37500000    1.28999996    2.86999989
   16.89416695   99.77010345    1.36000001    2.84999990
   16.89722252   98.66239929    1.64999998    2.84999990
   16.90055466  103.65399933    1.64999998    2.84999990
   16.90611076  103.65399933    2.26999998    2.84999990
   16.91027832  102.66999817    2.55999994    2.86999989
   16.91333389   97.00080109    2.25000000    2.84999990
   16.91666603   97.16819763    2.00000000    2.84999990
   16.92000008   96.36479950    1.55999994    2.86999989
   16.92305565  101.40799713    1.63000000    2.84999990
   16.92638779   93.28739929    1.41999996    2.82999992
   16.92972183  101.92900085    1.21000004    2.84999990
   16.93277740   96.93329620    1.07000005    2.84999990
   16.93610954   98.46479797    1.01999998    2.86999989
   16.93861008  102.89299774    0.92000002    2.84999990
   16.93972206   99.59670258    0.89999998    2.84999990
   16.94277763  102.83200073    0.88000000    2.84999990
   16.94888878  102.83200073    0.89999998    2.86999989
   16.95305634   98.33159637    0.89999998    2.86999989
   16.95639038   97.55500031    0.92000002    2.84999990
   16.95944595  103.66300201    0.89999998    2.84999990
   16.96277809  101.26799774    0.89999998    2.84999990
   16.96611214   98.48439789    0.89999998    2.84999990
   16.96916771   96.46189880    0.88000000    2.84999990
   16.97194481  103.12000275    0.88000000    2.84999990
   16.97305679   98.85389709    0.88000000    2.86999989
   16.97611237   98.69750214    0.88000000    2.86999989
   16.97944450  100.36299896    0.88000000    2.84999990
   16.98277855   96.87210083    0.88000000    2.86999989
   16.98583412   99.82409668    0.88000000    2.86999989
   16.99166679   99.82409668    0.88000000    2.86999989
   16.99583435  104.24800110    0.86000001    2.84999990
   16.99916649  101.24900055    0.86000001    2.84999990
   17.00250053   97.54930115    0.83999997    2.84999990
   17.00527763  103.72499847    0.83999997    2.86999989
   17.00611115   97.89430237    0.83999997    2.86999989
   17.00916672   98.43109894    0.81999999    2.86999989
   17.01250076  101.46399689    0.80000001    2.86999989
   17.01583290   99.91030121    0.79000002    2.86999989
   17.01888847  103.66400146    0.79000002    2.86999989
   17.02222252  103.67099762    0.79000002    2.86999989
   17.02527809  103.95800018    0.76999998    2.86999989
   17.02861023  104.17199707    0.79000002    2.86999989
   17.03472137  104.17199707    0.76999998    2.86999989
   17.03888893   94.11879730    0.79000002    2.86999989
   17.04194450   91.34140015    0.80000001    2.86999989
   17.04527664   93.77459717    0.80000001    2.86999989
   17.04833221   98.88040161    0.80000001    2.86999989
   17.05166626  106.22299957    0.80000001    2.86999989
   17.05499840   98.70279694    0.79000002    2.86999989
   17.05805397  100.84799957    0.79000002    2.86999989
   17.06138802   98.19039917    0.81999999    2.86999989
   17.06472206   98.06680298    0.81999999    2.86999989
   17.06777954  101.41300201    0.81999999    2.86999989
   17.07111168  104.31800079    0.81999999    2.86999989
   17.07194519  101.18699646    0.81999999    2.84999990
   17.09250069  101.18699646    0.81999999    2.84999990
   17.09666824   96.92040253    0.81999999    2.86999989
   17.10000038   98.84680176    0.81999999    2.86999989
   17.10333443  102.20800018    0.80000001    2.86999989
   17.10527802   95.47799683    0.81999999    2.86999989
   17.10694504   99.38500214    0.81999999    2.84999990
   17.11000061   99.02639771    0.81999999    2.84999990
   17.11333466   94.45929718    0.81999999    2.86999989
   17.11666679   97.00939941    0.81999999    2.84999990
   17.11972237  100.46299744    0.81999999    2.86999989
   17.12305641  100.55699921    0.81999999    2.86999989
   17.12611198   99.25530243    0.81999999    2.84999990
   17.12972260   97.37870026    0.81999999    2.84999990
   17.13527679   97.37870026    0.81999999    2.86999989
   17.13944435   91.62950134    0.81999999    2.86999989
   17.14277840   95.55339813    0.81999999    2.86999989
   17.14583397  100.78600311    0.81999999    2.84999990
   17.14916611   92.28389740    0.81999999    2.84999990
   17.15250015   98.09310150    0.81999999    2.84999990
   17.15555573   94.63400269    0.81999999    2.84999990
   17.15888786  100.05300140    0.81999999    2.84999990
   17.16222191   94.91660309    0.81999999    2.86999989
   17.16527748   98.30639648    0.80000001    2.86999989
   17.16860962   90.02670288    0.80000001    2.86999989
   17.17194366  103.71199799    0.81999999    2.86999989
   17.17249870  104.07199860    0.81999999    2.86999989
   17.17833328  104.07199860    0.80000001    2.86999989
   17.18222237  100.58799744    0.80000001    2.86999989
   17.18555450  100.17500305    0.79000002    2.86999989
   17.18916512  101.37899780    0.79000002    2.86999989
   17.19222069   99.48709869    0.79000002    2.86999989
   17.19555473   99.29789734    0.79000002    2.86999989
   17.19861031   98.81490326    0.79000002    2.86999989
   17.20194435  101.76899719    0.79000002    2.86999989
   17.20527840   94.45140076    0.79000002    2.86999989
   17.20583344   98.55629730    0.79000002    2.84999990
   17.20861244   95.42430115    0.81999999    2.86999989
   17.21194458   94.72730255    0.81999999    2.86999989
   17.21527863   92.86889648    0.81999999    2.86999989
   17.22111130   92.86889648    0.81999999    2.86999989
   17.22527885   92.44599915    0.81999999    2.86999989
   17.22833443   94.50389862    0.80000001    2.86999989
   17.23166656   95.25009918    0.80000001    2.86999989
   17.23472214   89.87840271    0.81999999    2.86999989
   17.23805618   97.63739777    0.80000001    2.86999989
   17.23916626   95.98809814    0.80000001    2.86999989
   17.24194527   99.18460083    0.80000001    2.84999990
   17.24500084   99.66349792    0.80000001    2.84999990
   17.24833298   93.88970184    0.80000001    2.86999989
   17.25138855  101.90399933    0.80000001    2.84999990
   17.25472260  102.97399902    0.79000002    2.86999989
   17.25805473  104.49400330    0.79000002    2.86999989
   17.26388931  104.49400330    0.79000002    2.86999989
   17.26805496  104.16500092    0.75000000    2.86999989
   17.27111053   96.32589722    0.75000000    2.86999989
   17.27249908   89.57710266    0.75000000    2.86999989
   17.27472115   98.77230072    0.75000000    2.86999989
   17.27805519  102.04299927    0.75000000    2.86999989
   17.28138924   97.82270050    0.80000001    2.86999989
   17.28444481   98.51670074    0.76999998    2.86999989
   17.28777695   95.62400055    0.75000000    2.86999989
   17.29083252   94.70639801    0.80000001    2.86999989
   17.29416656   99.51550293    0.79000002    2.86999989
   17.29749870   92.89739990    0.80000001    2.86999989
   17.30055428  105.55999756    0.79000002    2.89000010
   17.30666542  105.55999756    0.75000000    2.86999989
   17.31083298  101.05100250    0.75000000    2.86999989
   17.31416512   96.19360352    0.76999998    2.86999989
   17.31722260  100.33100128    0.76999998    2.86999989
   17.32055664   92.89260101    0.76999998    2.86999989
   17.32389069   95.08640289    0.79000002    2.86999989
   17.32694626  103.83799744    0.79000002    2.86999989
   17.33027840   96.53859711    0.83999997    2.84999990
   17.33361244  102.69699860    0.88000000    2.86999989
   17.33666801   93.37570190    0.88000000    2.86999989
   17.33916664   98.08020020    0.88000000    2.84999990
   17.34027863  104.71499634    0.88000000    2.84999990
   17.34361267   96.71140289    0.89999998    2.84999990
   17.34944534   96.71140289    0.89999998    2.84999990
   17.35361099  106.84100342    0.88000000    2.86999989
   17.35694504  110.68099976    0.88000000    2.86999989
   17.36027908  108.08899689    0.88000000    2.86999989
   17.36333466  107.79000092    0.94000000    2.84999990
   17.36666679  101.48200226    0.83999997    2.86999989
   17.36972237  104.61900330    0.81999999    2.86999989
   17.37249947  107.73999786    0.81999999    2.86999989
   17.37333298  105.55400085    0.81999999    2.86999989
   17.37666702   99.13529968    0.81999999    2.86999989
   17.38000107  103.01000214    0.80000001    2.86999989
   17.38305473   99.77449799    0.80000001    2.86999989
   17.38638878   97.97029877    0.80000001    2.84999990
   17.39249992   97.97029877    0.81999999    2.86999989
   17.39666748  102.91100311    0.81999999    2.86999989
   17.39972115  104.00299835    0.81999999    2.86999989
   17.40305519  100.25800323    0.81999999    2.84999990
   17.40583229  108.01200104    0.83999997    2.84999990
   17.40666580  105.07399750    0.83999997    2.84999990
   17.40999985  104.58200073    0.81999999    2.84999990
   17.41333389  100.81999969    0.81999999    2.84999990
   17.41638756  105.21199799    0.81999999    2.86999989
   17.41972160  101.29499817    0.86000001    2.86999989
   17.42277718  107.22100067    0.86000001    2.86999989
   17.42611122  110.84100342    0.88000000    2.84999990
   17.42944336  104.42199707    0.81999999    2.86999989
   17.43527603  104.42199707    0.81999999    2.86999989
   17.43944359  100.88999939    0.80000001    2.86999989
   17.44249916   93.06289673    0.81999999    2.86999989
   17.44583321  104.47599792    0.81999999    2.86999989
   17.44916534  108.60199738    0.81999999    2.86999989
   17.45222282  108.65100098    0.81999999    2.86999989
   17.45555687  105.66200256    0.81999999    2.86999989
   17.45888901  107.32199860    0.81999999    2.86999989
   17.46194458   98.03060150    0.80000001    2.86999989
   17.46527863  100.18900299    0.79000002    2.84999990
   17.46833420   90.23100281    0.79000002    2.86999989
   17.47166634  110.10600281    0.80000001    2.86999989
   17.47249985  100.00199890    0.80000001    2.86999989
   17.47805595  100.00199890    0.79000002    2.86999989
   17.48222351   99.40270233    0.79000002    2.86999989
   17.48555565   98.58560181    0.79000002    2.86999989
   17.48861122   99.59529877    0.79000002    2.86999989
   17.49194527  101.61000061    0.79000002    2.86999989
   17.49527740  102.53299713    0.79000002    2.86999989
   17.49833298  100.50199890    0.79000002    2.84999990
   17.50166702  100.82900238    0.79000002    2.84999990
   17.50472260   95.71549988    0.79000002    2.86999989
   17.50583267  102.32499695    0.79000002    2.86999989
   17.50833321   96.71859741    0.79000002    2.86999989
   17.51166725  101.40000153    0.79000002    2.86999989
   17.51499939   94.61070251    0.79000002    2.86999989
   17.52083397   94.61070251    0.76999998    2.86999989
   17.52499962   94.86640167    0.75000000    2.86999989
   17.52833366   96.63960266    0.73000002    2.86999989
   17.53166580   97.30490112    0.73000002    2.86999989
   17.53472137   97.44280243    0.73000002    2.86999989
   17.53805542   92.18599701    0.73000002    2.86999989
   17.53916550   93.03240204    0.73000002    2.86999989
   17.54138756  100.51200104    0.73000002    2.86999989
   17.54472160  102.91799927    0.73000002    2.89000010
   17.54805565  107.22899628    0.70999998    2.86999989
   17.55111122   96.18509674    0.73000002    2.86999989
   17.55444336   97.23320007    0.73000002    2.86999989
   17.55777740   96.22440338    0.73000002    2.89000010
   17.56388855   96.22440338    0.70999998    2.86999989
   17.56805611   89.04309845    0.70999998    2.89000010
   17.57111168   98.49870300    0.70999998    2.89000010
   17.57250023   94.76889801    0.70999998    2.89000010
   17.57500076   94.59200287    0.73000002    2.86999989
   17.57805634   96.11620331    0.73000002    2.89000010
   17.58139038   98.42389679    0.73000002    2.89000010
   17.58444595  101.25399780    0.73000002    2.86999989
   17.58777809   93.51989746    0.75000000    2.86999989
   17.59111214   91.74579620    0.75000000    2.86999989
   17.59416771   91.17890167    0.76999998    2.86999989
   17.59749985  103.84899902    0.76999998    2.89000010
   17.60083389   94.76660156    0.76999998    2.86999989
   17.60666656   94.76660156    0.76999998    2.86999989
   17.61083412  101.23100281    0.79000002    2.84999990
   17.61388969   94.94039917    0.76999998    2.86999989
   17.61722183  100.57099915    0.76999998    2.86999989
   17.62055588  108.16300201    0.76999998    2.86999989
   17.62361145   99.05229950    0.76999998    2.86999989
   17.62694550  103.52200317    0.76999998    2.86999989
   17.63027763  101.13800049    0.76999998    2.86999989
   17.63333321  102.28900146    0.76999998    2.86999989
   17.63666725  102.22699738    0.75000000    2.86999989
   17.63916588  102.21499634    0.75000000    2.86999989
   17.63999939   99.19339752    0.75000000    2.86999989
   17.64333344  100.05000305    0.75000000    2.86999989
   17.64944458  100.05000305    0.73000002    2.86999989
   17.65361023   97.35530090    0.73000002    2.86999989
   17.65694427  107.32599640    0.73000002    2.86999989
   17.65999985   96.49230194    0.73000002    2.86999989
   17.66333389  100.90899658    0.70999998    2.86999989
   17.66666603  100.44699860    0.73000002    2.86999989
   17.66972160   95.17859650    0.73000002    2.86999989
   17.67249870   99.90419769    0.73000002    2.86999989
   17.67361069   94.93499756    0.73000002    2.86999989
   17.67666626   97.75499725    0.73000002    2.86999989
   17.68000031  102.12799835    0.73000002    2.86999989
   17.68305397   98.09590149    0.75000000    2.86999989
   17.68638802  100.11399841    0.75000000    2.86999989
   17.69249916  100.11399841    0.75000000    2.86999989
   17.69638824   97.28559875    0.75000000    2.86999989
   17.69972038   95.75769806    0.73000002    2.86999989
   17.70305634   99.06690216    0.75000000    2.86999989
   17.70583344   93.58699799    0.75000000    2.86999989
   17.70666695   97.75050354    0.75000000    2.86999989
   17.70972252   95.47769928    0.75000000    2.86999989
   17.71305656  103.97200012    0.75000000    2.86999989
   17.71611214  100.81700134    0.75000000    2.86999989
   17.71944427   99.76840210    0.75000000    2.86999989
   17.72277832  104.26999664    0.75000000    2.86999989
   17.72583389   93.56759644    0.75000000    2.86999989
   17.72916794   94.97930145    0.75000000    2.86999989
   17.73527718   94.97930145    0.75000000    2.86999989
   17.73944473  102.95700073    0.75000000    2.86999989
   17.74277878   92.50019836    0.75000000    2.86999989
   17.74611092  112.52400208    0.75000000    2.86999989
   17.74916649   99.16560364    0.75000000    2.86999989
   17.75250053  105.39299774    0.75000000    2.86999989
   17.75555611  104.91100311    0.75000000    2.86999989
   17.75888824  107.38999939    0.75000000    2.86999989
   17.76222229  107.46399689    0.75000000    2.86999989
   17.76638794  109.17400360    0.75000000    2.86999989
   17.76944351  104.71800232    0.75000000    2.86999989
   17.77249908   98.32730103    0.75000000    2.86999989
   17.77333260   99.46040344    0.76999998    2.86999989
   17.78666687   99.46040344    0.73000002    2.86999989
   17.79055595  104.64399719    0.73000002    2.86999989
   17.79388809  101.54100037    0.73000002    2.86999989
   17.79722214   98.88829803    0.73000002    2.86999989
   17.80027771   99.44560242    0.73000002    2.86999989
   17.80360985  104.59600067    0.73000002    2.86999989
   17.80583191  104.80699921    0.73000002    2.86999989
   17.80722237   98.83080292    0.73000002    2.86999989
   17.81027794  101.87999725    0.73000002    2.86999989
   17.81361008  106.34700012    0.75000000    2.86999989
   17.81666756   97.99700165    0.75000000    2.86999989
   17.82083511   97.99700165    0.76999998    2.86999989
   17.82500076   99.80819702    0.76999998    2.86999989
   17.82833481  100.41500092    0.73000002    2.86999989
   17.83139038   97.03320313    0.73000002    2.86999989
   17.83472252   96.88849640    0.73000002    2.86999989
   17.83805656   99.94689941    0.73000002    2.86999989
   17.83916664  108.90499878    0.73000002    2.86999989
   17.84166718   97.13359833    0.73000002    2.86999989
   17.84472275  106.79000092    0.75000000    2.86999989
   17.84805679   99.36900330    0.73000002    2.86999989
   17.85111237   98.06340027    0.73000002    2.86999989
   17.85444450  105.20300293    0.73000002    2.86999989
   17.85777855  100.50299835    0.73000002    2.86999989
   17.86388969  100.50299835    0.76999998    2.86999989
   17.86777878  106.88200378    0.75000000    2.86999989
   17.87111092   97.64019775    0.76999998    2.86999989
   17.87249947  102.34600067    0.75000000    2.86999989
   17.87500000   99.11579895    0.75000000    2.86999989
   17.87805557  100.93800354    0.75000000    2.86999989
   17.88138962  110.23699951    0.75000000    2.86999989
   17.88444519  102.46800232    0.75000000    2.86999989
   17.88777733  102.80400085    0.75000000    2.86999989
   17.89111137  101.75499725    0.75000000    2.86999989
   17.89444351  105.19899750    0.75000000    2.86999989
   17.89777756   99.66480255    0.75000000    2.86999989
   17.90083313   99.78639984    0.75000000    2.86999989
   17.90666580   99.78639984    0.76999998    2.86999989
   17.91083336  107.04499817    0.76999998    2.84999990
   17.91388893   98.75789642    0.76999998    2.86999989
   17.91722107  106.58000183    0.76999998    2.86999989
   17.92055511   99.47959900    0.76999998    2.86999989
   17.92361069  106.83699799    0.76999998    2.86999989
   17.92694473   98.77400208    0.76999998    2.86999989
   17.93000031  103.45600128    0.76999998    2.86999989
   17.93333244  100.45700073    0.76999998    2.86999989
   17.93666649  105.86599731    0.76999998    2.86999989
   17.93916512  109.77400208    0.76999998    2.86999989
   17.94027710  104.29499817    0.76999998    2.86999989
   17.94333267  110.92500305    0.75000000    2.86999989
   17.94944382  110.92500305    0.75000000    2.86999989
   17.95361137  106.64299774    0.75000000    2.86999989
   17.95694542  104.00800323    0.75000000    2.86999989
   17.96000099  106.04799652    0.75000000    2.86999989
   17.96333504  106.13700104    0.75000000    2.86999989
   17.96638870  107.73300171    0.75000000    2.86999989
   17.96972275  113.43599701    0.75000000    2.86999989
   17.97249985   95.18879700    0.75000000    2.86999989
   17.97361183  107.09899902    0.75000000    2.86999989
   17.97666740  106.64800262    0.76999998    2.86999989
   17.98000145   96.43170166    0.76999998    2.84999990
   17.98305511  106.32399750    0.79000002    2.86999989
   17.98638916   95.68540192    0.79000002    2.86999989
   17.99222183   95.68540192    0.79000002    2.86999989
   17.99638939  107.01599884    0.80000001    2.84999990
   17.99972153   98.14469910    0.80000001    2.84999990
   18.00305557  104.91899872    0.81999999    2.84999990
   18.00583267   94.44869995    0.81999999    2.84999990
   18.00666618   90.22010040    0.81999999    2.86999989
   18.00972176  100.73799896    0.81999999    2.86999989
   18.01305580  104.12699890    0.81999999    2.86999989
   18.01611137  103.73799896    0.83999997    2.84999990
   18.01944351   99.39579773    0.86000001    2.84999990
   18.02277756  104.29499817    0.88000000    2.86999989
   18.02583313   98.73880005    0.86000001    2.86999989
   18.02916718  105.91100311    0.86000001    2.84999990
   18.03527641  105.91100311    0.86000001    2.84999990
   18.03916550  101.17500305    0.86000001    2.84999990
   18.04249954   96.56950378    0.79000002    2.84999990
   18.04583359   99.02220154    0.79000002    2.86999989
   18.04888916   99.46269989    0.79000002    2.84999990
   18.05222130  105.60500336    0.79000002    2.86999989
   18.05555534  107.37799835    0.79000002    2.84999990
   18.05861092  102.26799774    0.79000002    2.86999989
   18.06194305  100.90100098    0.79000002    2.86999989
   18.06499863   97.18009949    0.79000002    2.86999989
   18.06833458  104.16600037    0.79000002    2.84999990
   18.07166672   98.37249756    0.76999998    2.86999989
   18.07250023   97.36550140    0.76999998    2.86999989
   18.07805634   97.36550140    0.79000002    2.84999990
   18.08222389  103.53299713    0.79000002    2.86999989
   18.08527756   97.38680267    0.80000001    2.84999990
   18.08861160   95.54460144    0.81999999    2.86999989
   18.09194565  100.90200043    0.81999999    2.84999990
   18.09500122   98.51409912    0.81999999    2.86999989
   18.11222267  107.78500366    0.83999997    2.86999989
   18.11499977   97.12290192    0.86000001    2.84999990
   18.12111092   97.12290192    0.88000000    2.84999990
   18.12527847  106.38500214    0.88000000    2.84999990
   18.12833405  105.17900085    0.89999998    2.84999990
   18.13166618  110.01699829    0.92000002    2.84999990
   18.13500023  100.86100006    0.92000002    2.86999989
   18.13805580  105.08999634    0.94000000    2.86999989
   18.14138794   92.51860046    0.94000000    2.86999989
   18.14444351   96.48809814    0.92000002    2.84999990
   18.14555550  103.45999908    0.92000002    2.84999990
   18.14833260   99.59339905    0.92000002    2.84999990
   18.15138817   96.09690094    0.92000002    2.84999990
   18.15472221  104.65899658    0.92000002    2.84999990
   18.15777779  101.01999664    0.92000002    2.84999990
   18.16388893  101.01999664    0.92000002    2.84999990
   18.16805458   98.94470215    0.94000000    2.84999990
   18.17138863  101.87200165    0.94000000    2.84999990
   18.17444420  105.35600281    0.94000000    2.86999989
   18.17777634   95.02619934    0.92000002    2.86999989
   18.17888832   99.30680084    0.92000002    2.86999989
   18.18138885   98.81780243    0.94000000    2.84999990
   18.18444443  113.85299683    0.94000000    2.84999990
   18.18777657  101.42199707    0.94000000    2.84999990
   18.19083214   97.59089661    0.94000000    2.86999989
   18.19416618   94.66860199    0.94000000    2.84999990
   18.19749832   98.82399750    0.94000000    2.86999989
   18.20055580  100.55400085    0.94000000    2.86999989
   18.20666695  100.55400085    0.94000000    2.84999990
   18.21083450   96.59919739    0.92000002    2.82999992
   18.21222305  100.00700378    0.94000000    2.84999990
   18.21472359  103.46299744    0.92000002    2.84999990
   18.21777916   96.96890259    0.92000002    2.84999990
   18.22111130   97.50569916    0.92000002    2.84999990
   18.22416687  106.87400055    0.89999998    2.84999990
   18.22750092  109.61199951    0.89999998    2.84999990
   18.23083305   93.89330292    0.92000002    2.84999990
   18.23388863  103.02999878    0.92000002    2.84999990
   18.23722267  100.65699768    0.94000000    2.84999990
   18.24055672  110.68000031    0.92000002    2.84999990
   18.24361229  103.92900085    0.92000002    2.84999990
   18.24555588  106.63200378    0.92000002    2.84999990
   18.24972153  106.63200378    0.95999998    2.84999990
   18.25388908  101.92400360    0.92000002    2.84999990
   18.25694466  101.31800079    0.92000002    2.84999990
   18.26027870  100.06600189    0.89999998    2.84999990
   18.26361084  107.28299713    0.89999998    2.84999990
   18.26666641  108.55000305    0.89999998    2.84999990
   18.27000046   94.49939728    0.89999998    2.84999990
   18.27333260  106.45400238    0.88000000    2.84999990
   18.27638817  111.52100372    0.86000001    2.84999990
   18.27888870  102.28299713    0.88000000    2.84999990
   18.28027725  103.30200195    0.86000001    2.84999990
   18.28333282  102.73500061    0.86000001    2.86999989
   18.28666687  103.68699646    0.86000001    2.84999990
   18.29249954  103.68699646    0.83999997    2.86999989
   18.29666710  101.93199921    0.83999997    2.86999989
   18.29999924   99.17320251    0.81999999    2.86999989
   18.30305481  100.69799805    0.83999997    2.84999990
   18.30638885  104.63200378    0.83999997    2.84999990
   18.30944443   96.10649872    0.83999997    2.86999989
   18.31222153  100.74600220    0.83999997    2.86999989
   18.31333351  103.59100342    0.83999997    2.84999990
   18.31638718  101.40899658    0.83999997    2.84999990
   18.31972313  107.39399719    0.83999997    2.84999990
   18.32277870  101.98999786    0.86000001    2.84999990
   18.32611275  111.58200073    0.86000001    2.84999990
   18.32944489   95.36329651    0.86000001    2.84999990
   18.33527756   95.36329651    0.88000000    2.84999990
   18.33944511  101.01699829    0.86000001    2.84999990
   18.34277916  105.83399963    0.88000000    2.84999990
   18.34555626  101.47100067    0.89999998    2.82999992
   18.34638977  100.57199860    0.89999998    2.84999990
   18.34944534   98.77590179    0.89999998    2.84999990
   18.35277748  106.38300323    0.89999998    2.84999990
   18.35583305  103.11399841    0.92000002    2.84999990
   18.35916710  101.53099823    0.89999998    2.84999990
   18.36250114   99.76909637    0.92000002    2.84999990
   18.36555672   97.04759979    0.92000002    2.84999990
   18.36888885   92.87580109    0.92000002    2.84999990
   18.37222290  101.52500153    0.92000002    2.84999990
   18.37833405  101.52500153    0.92000002    2.84999990
   18.38222313   98.49909973    0.92000002    2.84999990
   18.38555527   99.45590210    0.92000002    2.84999990
   18.38888931   88.04900360    0.92000002    2.84999990
   18.39277840   93.44110107    0.94000000    2.84999990
   18.39611053   97.01049805    0.94000000    2.84999990
   18.39916611  100.29900360    0.95999998    2.84999990
   18.40250015   98.00789642    0.95999998    2.84999990
   18.40555573   99.86679840    0.95999998    2.84999990
   18.40888786   93.50340271    0.95999998    2.84999990
   18.41222191   90.66549683    0.98000002    2.84999990
   18.41333389  102.73600006    0.98000002    2.84999990
   18.41555595  105.29799652    0.98000002    2.84999990
   18.42111015  105.29799652    1.00000000    2.84999990
   18.42527771   95.32620239    1.00000000    2.82999992
   18.42860985   90.25370026    1.01999998    2.82999992
   18.43194389  129.47399902    1.03999996    2.82999992
   18.43499947   96.77629852    4.90999985    2.86999989
   18.43833160   89.26219940    4.26999998    2.89000010
   18.44138718   93.96320343    1.03999996    2.84999990
   18.44472122  100.46900177    1.03999996    2.82999992
   18.44666672   93.01869965    1.03999996    2.84999990
   18.44833183   99.71829987    1.03999996    2.84999990
   18.45166779   88.81729889    1.03999996    2.84999990
   18.45499992   96.86759949    1.03999996    2.84999990
   18.45805550   90.07340240    1.05999994    2.78999996
   18.46416664   90.07340240    1.01999998    2.86999989
   18.46805573   96.17120361    1.01999998    2.84999990
   18.47138977  101.67299652    1.00000000    2.84999990
   18.47472191  102.29599762    1.00000000    2.86999989
   18.47777748  103.59600067    1.00000000    2.86999989
   18.48000145   89.16369629    0.95999998    2.84999990
   18.48166656   98.06430054    0.95999998    2.84999990
   18.48472214   94.33319855    0.95999998    2.84999990
   18.48805618   92.52860260    0.94000000    2.84999990
   18.49138832  103.47100067    0.94000000    2.84999990
   18.49444389   87.01409912    0.94000000    2.84999990
   18.49777794   86.43129730    0.94000000    2.84999990
   18.50083351   87.91619873    0.92000002    2.84999990
   18.50666618   87.91619873    0.92000002    2.86999989
   18.51083374   99.79640198    0.92000002    2.84999990
   18.51333427   85.05729675    0.92000002    2.86999989
   18.51444435   90.07759857    0.92000002    2.84999990
   18.51749992   81.25789642    0.92000002    2.84999990
   18.52083397   95.44139862    0.92000002    2.84999990
   18.52416611   91.19020081    0.92000002    2.84999990
   18.52722168   95.48580170    0.92000002    2.84999990
   18.53055573   99.75180054    0.92000002    2.84999990
   18.53388786  100.14299774    0.89999998    2.84999990
   18.53694344   95.25279999    0.89999998    2.84999990
   18.54027748  103.33000183    0.89999998    2.84999990
   18.54361153   99.76509857    0.89999998    2.84999990
   18.54972076   99.76509857    0.89999998    2.84999990
   18.55388832   98.80429840    0.89999998    2.86999989
   18.55694389   96.98079681    0.89999998    2.82999992
   18.56027794  100.96099854    0.89999998    2.82999992
   18.56333351   97.28240204    0.92000002    2.84999990
   18.56666756   98.46910095    0.89999998    2.82999992
   18.57000160   97.45950317    0.89999998    2.84999990
   18.57305717   97.58270264    0.89999998    2.84999990
   18.57638931   92.80680084    0.89999998    2.82999992
   18.57972336   95.11229706    0.88000000    2.84999990
   18.58055687   92.66369629    0.88000000    2.84999990
   18.58333397  101.59799957    0.88000000    2.84999990
   18.58638954   97.22920227    0.88000000    2.84999990
   18.59250069   97.22920227    0.88000000    2.84999990
   18.59666824  100.51599884    0.86000001    2.84999990
   18.59972191   96.03869629    0.86000001    2.84999990
   18.60305595   95.30599976    0.86000001    2.84999990
   18.60639000   92.74939728    0.86000001    2.84999990
   18.60944557   94.85610199    0.89999998    2.84999990
   18.61277771   97.69000244    0.89999998    2.82999992
   18.61388969   94.48040009    0.89999998    2.84999990
   18.61638832  104.57299805    0.89999998    2.84999990
   18.61944389   95.13819885    0.89999998    2.84999990
   18.62277794   93.60990143    0.89999998    2.84999990
   18.62583351  101.16999817    0.88000000    2.84999990
   18.62916756   93.89700317    0.92000002    2.84999990
   18.63527679   93.89700317    0.88000000    2.84999990
   18.63944435   96.68289948    0.83999997    2.84999990
   18.64277840   93.36969757    0.83999997    2.84999990
   18.64583397   93.42620087    0.81999999    2.86999989
   18.64749908  104.38400269    0.81999999    2.86999989
   18.64944458  100.16699982    0.81999999    2.84999990
   18.65277672  108.19499969    0.81999999    2.84999990
   18.65611076  105.46900177    0.83999997    2.86999989
   18.65916634   94.44899750    0.83999997    2.84999990
   18.66250038   95.48919678    0.83999997    2.84999990
   18.66555595  100.43099976    0.81999999    2.84999990
   18.66888809   96.16870117    0.81999999    2.84999990
   18.67222214   99.38220215    0.81999999    2.84999990
   18.67805481   99.38220215    0.81999999    2.84999990
   18.68222237   94.94920349    0.83999997    2.82999992
   18.68555450   94.92819977    0.83999997    2.84999990
   18.68861008   98.23179626    0.83999997    2.86999989
   18.69194412   99.27330017    1.73000002    2.86999989
   18.69527626   93.37599945    2.01999998    2.84999990
   18.69833183   98.03869629    2.73000002    2.84999990
   18.70166779  100.85399628    2.44000006    2.84999990
   18.70499992  101.39499664    1.34000003    2.84999990
   18.70805550   98.62560272    1.11000001    2.84999990
   18.71138954  106.94899750    1.11000001    2.84999990
   18.71416664  102.16200256    1.11000001    2.84999990
   18.71500015  102.50900269    1.11000001    2.84999990
   18.72111130  102.50900269    0.83999997    2.84999990
   18.72500038   96.22799683    0.83999997    2.86999989
   18.72833443   96.95110321    0.81999999    2.84999990
   18.73166656   95.92449951    0.81999999    2.84999990
   18.73472214   98.23429871    0.81999999    2.84999990
   18.73805618   91.19439697    0.81999999    2.84999990
   18.74138832   97.04429626    0.81999999    2.84999990
   18.74444389   94.02580261    0.81999999    2.84999990
   18.74749947  102.15799713    0.81999999    2.84999990
   18.74805641   95.77239990    0.81999999    2.84999990
   18.75138855  102.26499939    0.81999999    2.84999990
   18.75472260  101.29299927    0.81999999    2.84999990
   18.75777817  100.73000336    0.81999999    2.84999990
   18.76388931  100.73000336    0.80000001    2.84999990
   18.76805496   98.24410248    0.81999999    2.84999990
   18.77111053   97.38040161    0.81999999    2.86999989
   18.77444458  100.65799713    0.81999999    2.84999990
   18.77777672   95.05760193    0.80000001    2.84999990
   18.78083229  100.79499817    0.80000001    2.84999990
   18.78111076  104.86399841    0.80000001    2.84999990
   18.78444481   99.97139740    0.81999999    2.84999990
   18.78777695   98.64610291    0.83999997    2.84999990
   18.79083252   94.93080139    0.83999997    2.84999990
   18.79500008   94.23110199    0.81999999    2.84999990
   18.79833221   89.66750336    0.81999999    2.84999990
   18.80138779  102.06600189    0.80000001    2.84999990
   18.80666542  102.06600189    0.80000001    2.84999990
   18.81083298  103.44000244    0.81999999    2.86999989
   18.81416512   98.94909668    0.81999999    2.84999990
   18.81444359   95.82080078    0.81999999    2.84999990
   18.81777954   93.08260345    0.89999998    2.84999990
   18.82111168  101.17099762    2.28999996    2.84999990
   18.82416725   94.45980072    2.71000004    2.78999996
   18.82750130   96.72940063    1.48000002    2.84999990
   18.83055687   99.52860260    1.13000000    2.84999990
   18.83388901   97.84600067    0.95999998    2.84999990
   18.83722305   93.34200287    0.89999998    2.84999990
   18.84027863   94.74900055    0.86000001    2.84999990
   18.84361267  102.68800354    0.86000001    2.86999989
   18.84944534  102.68800354    0.83999997    2.84999990
   18.85361099  101.33499908    0.83999997    2.84999990
   18.85694504  100.24400330    0.83999997    2.84999990
   18.86000061   86.75530243    0.81999999    2.84999990
   18.86333466   98.07649994    0.81999999    2.84999990
   18.86666679   94.57630157    0.81999999    2.84999990
   18.86972237   91.20760345    0.81999999    2.84999990
   18.87305641   93.68859863    0.81999999    2.84999990
   18.87638855   93.41380310    0.81999999    2.84999990
   18.87944412   91.74259949    0.83999997    2.84999990
   18.88083267   91.82669830    0.83999997    2.84999990
   18.88333321   94.12169647    0.81999999    2.84999990
   18.88666725   91.12300110    0.81999999    2.84999990
   18.89249992   91.12300110    0.81999999    2.84999990
   18.89638901   96.46800232    0.81999999    2.84999990
   18.89972115   91.64890289    0.81999999    2.84999990
   18.90305519   92.68009949    0.81999999    2.84999990
   18.90611076   94.29550171    0.81999999    2.84999990
   18.90944481   94.02339935    0.80000001    2.86999989
   18.91277695   92.40080261    0.80000001    2.84999990
   18.91416550   93.69270325    0.80000001    2.86999989
   18.91611099   87.74729919    0.80000001    2.86999989
   18.91944313   92.24069977    0.81999999    2.86999989
   18.92277718   91.29940033    0.81999999    2.84999990
   18.92583275   93.53859711    0.81999999    2.84999990
   18.92916679   93.80419922    0.81999999    2.84999990
   18.93527603   93.80419922    0.81999999    2.84999990
   18.93944359   95.57939911    0.81999999    2.84999990
   18.94249916   95.52749634    0.80000001    2.84999990
   18.94583321   92.54380035    0.81999999    2.84999990
   18.94777679   99.27220154    0.81999999    2.84999990
   18.94944382   97.61519623    0.81999999    2.84999990
   18.95277786   98.54329681    0.80000001    2.86999989
   18.95583344   93.79219818    0.80000001    2.86999989
   18.95916748   93.87889862    0.80000001    2.84999990
   18.96250153   95.97640228    0.81999999    2.84999990
   18.96555710   93.67479706    0.81999999    2.84999990
   18.96888924   96.19090271    0.81999999    2.84999990
   18.97222328   99.25150299    0.83999997    2.84999990
   18.97805595   99.25150299    0.81999999    2.84999990
   18.98222351   94.67369843    0.81999999    2.82999992
   18.98555565   89.16750336    0.81999999    2.84999990
   18.98861122   93.64250183    0.81999999    2.84999990
   18.99194527   86.51679993    0.81999999    2.84999990
   18.99500084   99.71170044    0.83999997    2.84999990
   18.99833298   90.22699738    0.83999997    2.84999990
   19.00166702   95.13649750    0.86000001    2.82999992
   19.00472260   91.12779999    0.86000001    2.84999990
   19.00805473   97.39070129    0.86000001    2.84999990
   19.01138878   96.14679718    0.86000001    2.84999990
   19.01444435   92.48940277    0.86000001    2.84999990
   19.01499939   98.26080322    0.86000001    2.84999990
   19.02083397   98.26080322    0.88000000    2.84999990
   19.02499962   92.66560364    0.88000000    2.84999990
   19.02833366   95.44750214    0.88000000    2.82999992
   19.03138924   92.06099701    0.88000000    2.84999990
   19.03472137   95.92749786    0.88000000    2.84999990
   19.03805542   90.26580048    0.92000002    2.84999990
   19.04138756   99.23580170    0.89999998    2.84999990
   19.04444313   98.80889893    0.89999998    2.82999992
   19.04777718  100.98400116    0.89999998    2.84999990
   19.04805565   97.02130127    0.89999998    2.84999990
   19.05138779   97.70670319    0.89999998    2.84999990
   19.05444336  101.94899750    0.89999998    2.84999990
   19.05777740  100.12100220    0.89999998    2.84999990
   19.06388855  100.12100220    0.88000000    2.82999992
   19.06777954   98.30930328    0.88000000    2.84999990
   19.07111168  101.15499878    0.98000002    2.84999990
   19.07444572   95.67009735    1.07000005    2.84999990
   19.07750130  100.46600342    1.07000005    2.84999990
   19.08083344   98.03089905    1.39999998    2.84999990
   19.08139038   99.04820251    1.39999998    2.84999990
   19.08472252  101.16000366    1.75000000    2.80999994
   19.08777809  101.40799713    1.39999998    2.80999994
   19.09111214   97.02149963    1.36000001    2.80999994
   19.09416771   99.60269928    0.92000002    2.82999992
   19.09749985  107.25299835    0.92000002    2.82999992
   19.10083389  102.39600372    0.92000002    2.82999992
   19.10666656  102.39600372    0.92000002    2.82999992
   19.11083412   91.93560028    0.94000000    2.82999992
   19.12916756   94.38030243    0.95999998    2.82999992
   19.13055611  100.91899872    0.95999998    2.82999992
   19.13388824  107.47100067    0.95999998    2.82999992
   19.13694382  105.36199951    0.95999998    2.82999992
   19.14027786  100.71600342    0.95999998    2.82999992
   19.14361191   95.15390015    0.95999998    2.80999994
   19.14972115   95.15390015    0.94000000    2.82999992
   19.15388870   88.69840240    0.94000000    2.82999992
   19.15694427   93.33850098    0.94000000    2.82999992
   19.16027832   98.11000061    0.95999998    2.82999992
   19.16250038   90.05190277    0.94000000    2.82999992
   19.16388893   92.95890045    0.94000000    2.82999992
   19.16694450   87.51820374    0.95999998    2.82999992
   19.17027664   90.86479950    0.95999998    2.82999992
   19.17361069   89.69129944    0.98000002    2.82999992
   19.17666626   95.43609619    0.95999998    2.82999992
   19.18000031   87.71600342    0.95999998    2.82999992
   19.18333244   88.86409760    0.95999998    2.82999992
   19.18638802   99.72570038    0.95999998    2.82999992
   19.19249916   99.72570038    0.98000002    2.82999992
   19.19749832   97.53340149    0.98000002    2.82999992
   19.20083427   94.50469971    1.00000000    2.82999992
   19.20416832   97.08110046    1.01999998    2.82999992
   19.20722389  104.58300018    1.03999996    2.82999992
   19.21055603   97.64109802    1.01999998    2.82999992
   19.21389008   97.01540375    1.03999996    2.82999992
   19.21694565   98.47360229    1.05999994    2.82999992
   19.22027779  102.76200104    1.05999994    2.82999992
   19.22333336   93.32299805    1.07000005    2.82999992
   19.22666740   96.63500214    1.07000005    2.82999992
   19.22916794   87.29419708    1.05999994    2.82999992
   19.23027802   97.03199768    1.05999994    2.82999992
   19.23527718   97.03199768    1.13000000    2.82999992
   19.23944473   94.42939758    1.13000000    2.84999990
   19.24277878  103.97200012    1.13000000    2.84999990
   19.24583435   93.43129730    1.11000001    2.82999992
   19.24916649  100.55000305    1.05999994    2.82999992
   19.25250053  101.44799805    1.03999996    2.82999992
   19.25555611  101.56500244    1.01999998    2.82999992
   19.25888824   94.46980286    1.01999998    2.82999992
   19.26222229   97.09629822    1.00000000    2.82999992
   19.26250076   94.92350006    1.00000000    2.82999992
   19.26583290   94.34889984    1.00000000    2.82999992
   19.26888847   94.85109711    1.00000000    2.82999992
   19.27222252   92.86419678    1.00000000    2.82999992
   19.27833366   92.86419678    1.05999994    2.82999992
   19.28222275   88.97910309    1.07000005    2.82999992
   19.28555489   93.55139923    1.09000003    2.82999992
   19.28888893   95.99800110    1.09000003    2.82999992
   19.29194450   90.84989929    1.09000003    2.82999992
   19.29527664  102.65799713    1.09000003    2.80999994
   19.29583359   96.47509766    1.09000003    2.80999994
   19.29888916   99.98899841    1.11000001    2.80999994
   19.30222130  101.79900360    1.13000000    2.82999992
   19.30527687   92.12699890    1.13000000    2.82999992
   19.30861092   92.20800018    1.21000004    2.80999994
   19.31194305   97.21189880    2.55999994    2.76999998
   19.31499863   97.36889648    1.89999998    2.78999996
   19.32111168   97.36889648    1.25000000    2.82999992
   19.32527924  102.42099762    1.14999998    2.80999994
   19.32833481   90.84690094    1.09000003    2.82999992
   19.32944489   90.26149750    1.09000003    2.80999994
   19.33194542   97.87359619    1.07000005    2.82999992
   19.33527756   88.66580200    1.07000005    2.80999994
   19.33833313   93.27429962    1.07000005    2.80999994
   19.34166718   95.96299744    1.07000005    2.82999992
   19.34500122   91.86640167    1.86000001    2.80999994
   19.34805679  100.68800354    2.15000010    2.80999994
   19.35138893   92.82520294    2.34999990    2.80999994
   19.35472298   96.64800262    2.98000002    2.78999996
   19.35777855   94.69059753    3.26999998    2.78999996
   19.36388969   94.69059753    3.80999994    2.76999998
   19.36805534   96.34600067    4.21999979    2.76999998
   19.37138939   97.69689941    4.13999987    2.78999996
   19.37444496   91.63890076    4.34999990    2.76999998
   19.37777710  102.18699646    4.69999981    2.76999998
   19.38083267   95.73130035    4.82999992    2.76999998
   19.38416672   97.84239960    4.67999983    2.76999998
   19.38750076   95.58820343    4.26999998    2.76999998
   19.39055634   93.61609650    3.97000003    2.76999998
   19.39388847   91.69029999    3.20000005    2.80999994
   19.39611053   91.02760315    2.78999996    2.80999994
   19.39777756   90.01200104    2.82999992    2.80999994
   19.40111160   89.01719666    2.75000000    2.76999998
   19.40666580   89.01719666    2.96000004    2.78999996
   19.41083336   88.93329620    1.76999998    2.80999994
   19.41416550   92.18129730    1.48000002    2.80999994
   19.41722107   89.66999817    1.33000004    2.78999996
   19.42055511  101.99700165    1.19000006    2.78999996
   19.42388916   90.57929993    1.14999998    2.78999996
   19.42694473   97.42880249    1.01999998    2.82999992
   19.42944336   97.04799652    1.03999996    2.82999992
   19.43055534  100.79599762    1.05999994    2.80999994
   19.43388748   98.59490204    1.05999994    2.80999994
   19.43694305   97.48690033    1.07000005    2.80999994
   19.44027710   98.27269745    1.07000005    2.80999994
   19.44361115   90.30599976    1.07000005    2.80999994
   19.44972038   90.30599976    1.03999996    2.80999994
   19.45361137   97.18769836    1.05999994    2.80999994
   19.45694542   89.09909821    1.05999994    2.80999994
   19.46027946   91.76010132    1.05999994    2.80999994
   19.46277809   94.70110321    1.01999998    2.80999994
   19.46389008   93.23249817    1.00000000    2.80999994
   19.46722221   96.19319916    0.98000002    2.78999996
   19.47027779   96.97750092    0.98000002    2.80999994
   19.47361183   98.16919708    0.98000002    2.80999994
   19.47694588  105.31800079    1.00000000    2.80999994
   19.48000145   95.77050018    1.00000000    2.80999994
   19.48333359   87.07270050    1.00000000    2.80999994
   19.48666763   94.36679840    1.00000000    2.80999994
   19.49250031   94.36679840    1.01999998    2.80999994
   19.49666786   95.91590118    1.00000000    2.80999994
   19.49972153  103.37899780    1.01999998    2.80999994
   19.50305557   96.77870178    1.00000000    2.80999994
   19.50638962   95.28440094    1.00000000    2.80999994
   19.50944519   88.72730255    1.00000000    2.80999994
   19.51277733  100.79299927    1.01999998    2.80999994
   19.51583290   96.01750183    1.13000000    2.80999994
   19.51916695   93.05819702    1.13000000    2.80999994
   19.52249908   88.75189972    1.14999998    2.80999994
   19.52555466   91.95449829    1.16999996    2.80999994
   19.52888870   92.42009735    1.13000000    2.78999996
   19.52944374   88.35140228    1.13000000    2.78999996
   19.53527641   88.35140228    1.05999994    2.80999994
   19.53944397  235.69400024    1.03999996    2.80999994
   19.54277802   92.97589874    0.98000002    2.80999994
   19.54583359   95.65319824    0.98000002    2.80999994
   19.54916573   96.13670349    0.98000002    2.80999994
   19.55222130   94.18890381    0.98000002    2.80999994
   19.55555534   92.52110291    0.98000002    2.80999994
   19.55888748   93.66829681    0.98000002    2.80999994
   19.56194305   99.45069885    0.98000002    2.80999994
   19.56277657   95.48789978    0.95999998    2.80999994
   19.56583214   96.40660095    0.95999998    2.80999994
   19.56888962   91.24870300    0.95999998    2.80999994
   19.57222366  102.03800201    0.95999998    2.80999994
   19.57805634  102.03800201    0.95999998    2.80999994
   19.58222389   89.13990021    0.95999998    2.80999994
   19.58555603   92.13929749    0.95999998    2.80999994
   19.58889008   99.66110229    0.95999998    2.82999992
   19.59194565   96.80269623    1.00000000    2.80999994
   19.59527779   95.46800232    1.01999998    2.80999994
   19.59611130  101.55699921    1.01999998    2.80999994
   19.59972191   94.33450317    1.01999998    2.82999992
   19.60305595   91.13780212    1.05999994    2.80999994
   19.60611153   93.57820129    1.13000000    2.80999994
   19.60944557   98.79399872    1.14999998    2.80999994
   19.61277771   95.44020081    1.44000006    2.80999994
   19.61583328   94.74349976    1.60000002    2.80999994
   19.62111092   94.74349976    1.80999994    2.80999994
   19.62500000   96.08489990    2.05999994    2.78999996
   19.62833405   91.21939850    2.30999994    2.76999998
   19.62944412  102.37799835    2.53999996    2.78999996
   19.63222313   91.48819733    1.66999996    2.80999994
   19.63527679   87.25330353    1.38000000    2.78999996
   19.63861084   91.06040192    1.23000002    2.78999996
   19.64166641   87.50669861    1.21000004    2.78999996
   19.64500046   94.15899658    1.21000004    2.78999996
   19.64833260   91.65059662    1.16999996    2.78999996
   19.65138817   92.34660339    1.19000006    2.80999994
   19.65472221  100.86399841    1.21000004    2.80999994
   19.65805435   87.67880249    1.21000004    2.78999996
   19.66388893   87.67880249    1.14999998    2.80999994
   19.66805458   96.24960327    1.13000000    2.80999994
   19.67111015   92.12270355    1.14999998    2.80999994
   19.67444420   90.19239807    1.11000001    2.80999994
   19.67777634   91.29540253    1.11000001    2.80999994
   19.68083191   88.65440369    1.11000001    2.80999994
   19.68416595   89.79530334    1.11000001    2.80999994
   19.68722153   94.58779907    1.11000001    2.78999996
   19.69055557   85.53589630    1.05999994    2.80999994
   19.69388771   87.98079681    1.11000001    2.80999994
   19.69610977   87.07119751    1.11000001    2.80999994
   19.69749832   91.37599945    1.16999996    2.80999994
   19.70055580   90.76490021    1.09000003    2.78999996
   19.70666695   90.76490021    1.13000000    2.78999996
   19.71083450   97.20269775    1.21000004    2.78999996
   19.71389008   95.69190216    1.25000000    2.78999996
   19.71722221   97.83460236    1.21000004    2.78999996
   19.72055626   96.65989685    1.16999996    2.78999996
   19.72361183   90.59220123    1.16999996    2.78999996
   19.72694588   88.28790283    1.13000000    2.78999996
   19.72944450   83.38829803    1.16999996    2.78999996
   19.73055649   85.38500214    1.16999996    2.78999996
   19.73361206   91.17510223    1.14999998    2.78999996
   19.73694420   86.45010376    1.16999996    2.78999996
   19.73999977   86.84989929    1.16999996    2.78999996
   19.74333382   88.99890137    1.19000006    2.78999996
   19.74944496   88.99890137    1.21000004    2.78999996
   19.75361061   92.49960327    1.21000004    2.78999996
   19.75694466   88.56250000    1.16999996    2.78999996
   19.76000023   82.98210144    1.13000000    2.78999996
   19.76277733   89.53589630    1.11000001    2.78999996
   19.76388931   88.84100342    1.11000001    2.78999996
   19.76694489   81.77719879    1.11000001    2.78999996
   19.77027702   88.68900299    1.11000001    2.82999992
   19.77361107   86.97810364    1.11000001    2.82999992
   19.77666664   85.03720093    1.11000001    2.78999996
   19.78000069   92.20420074    1.11000001    2.80999994
   19.78305435   85.95480347    1.13000000    2.78999996
   19.78638840   86.17099762    1.13000000    2.78999996
   19.79222107   86.17099762    1.14999998    2.78999996
   19.79638863   83.65370178    1.14999998    2.78999996
   19.79999924   82.59839630    1.33000004    2.78999996
   19.80333328   86.39150238    1.26999998    2.78999996
   19.80666542   83.02660370    1.21000004    2.78999996
   19.80972099   84.76180267    1.19000006    2.78999996
   19.81305504   84.89019775    1.19000006    2.78999996
   19.81638718   88.46209717    1.16999996    2.78999996
   19.81944466   86.17669678    1.16999996    2.76999998
   19.82277870   90.23249817    1.19000006    2.78999996
   19.82583427   96.77970123    1.21000004    2.76999998
   19.82916832   89.48210144    1.33000004    2.78999996
   19.82972336   88.25820160    1.33000004    2.78999996
   19.83527756   88.25820160    1.58000004    2.76999998
   19.83944511   93.93669891    1.60000002    2.76999998
   19.84250069   94.11569977    1.38000000    2.76999998
   19.84583473   89.68190002    1.36000001    2.76999998
   19.84889030   93.12319946    1.26999998    2.76999998
   19.85222244   89.46029663    1.26999998    2.76999998
   19.85555649   93.22850037    1.28999996    2.76999998
   19.85861206   92.86299896    1.48000002    2.76999998
   19.86194420   87.67939758    1.50000000    2.76999998
   19.86305618   90.90509796    1.50000000    2.76999998
   19.86555672   89.97149658    1.46000004    2.76999998
   19.86861038   89.43959808    1.25000000    2.76999998
   19.87194443   91.14790344    1.30999994    2.76999998
   19.87805557   91.14790344    1.36000001    2.78999996
   19.88222313   92.05590057    1.36000001    2.76999998
   19.88527679   94.25869751    1.48000002    2.78999996
   19.88861084   91.80960083    1.48000002    2.78999996
   19.89194489   90.87079620    1.48000002    2.78999996
   19.89500046   91.60140228    1.44000006    2.76999998
   19.89638901   92.55819702    1.44000006    2.76999998
   19.89888954   90.96640015    1.39999998    2.76999998
   19.90194321   90.51309967    1.39999998    2.76999998
   19.90527725   93.06809998    1.38000000    2.76999998
   19.90861130   85.92259979    1.41999996    2.76999998
   19.91166687   97.30960083    1.33000004    2.76999998
   19.91499901   92.64129639    1.44000006    2.75000000
   19.92083359   92.64129639    1.41999996    2.75000000
   19.92499924   92.99189758    1.30999994    2.76999998
   19.92833328   89.51119995    1.36000001    2.78999996
   19.92972183   94.13520050    1.26999998    2.76999998
   19.93194389   90.12190247    1.26999998    2.76999998
   19.93499947   91.42310333    1.26999998    2.76999998
   19.93833160   91.76260376    1.28999996    2.76999998
   19.94166565   93.67890167    1.30999994    2.76999998
   19.94472122   89.08090210    1.39999998    2.76999998
   19.94805527   94.58730316    2.36999989    2.78999996
   19.95111275   90.60420227    4.86999989    2.80999994
   19.95444489   91.25589752    4.90999985    2.82999992
   19.95777893   -1.00000000    4.90999985    2.82999992
   19.96361160   -1.00000000    4.90999985    1.46000004
   19.96777916   94.56719971    4.90999985    2.86999989
   19.97111130   98.85420227    2.01999998    2.82999992
   19.97444534   92.65589905    4.90999985    2.80999994
   19.97750092   99.20639801    4.90999985    1.96000004
   19.98083305  141.87699890    4.90999985    1.91999996
   19.98388863   -1.00000000    4.90999985    0.69000000
   19.98722267  101.63200378    4.90999985    0.73000002
   19.99055672   97.94699860    4.90999985    2.80999994
   19.99361229   97.84760284    4.90999985    2.80999994
   19.99638939  102.48500061    1.30999994    2.78999996
   19.99749947   92.00959778    1.26999998    2.76999998
   20.00055504   95.62239838    1.23000002    2.76999998
   20.00666618   95.62239838    1.21000004    2.76999998
   20.01083374  102.06500244    1.23000002    2.76999998
   20.01388931   96.76119995    1.21000004    2.76999998
   20.01722145   92.94229889    1.21000004    2.76999998
   20.02055550   93.55899811    1.23000002    2.75000000
   20.02361107   96.08979797    1.21000004    2.76999998
   20.02694511   92.76249695    1.21000004    2.76999998
   20.02972221   94.75119781    1.21000004    2.75000000
   20.03055573   91.29840088    1.21000004    2.75000000
   20.03388786  100.89199829    1.21000004    2.76999998
   20.03777695   96.68979645    1.21000004    2.75000000
   20.04083252   94.57620239    1.21000004    2.75000000
   20.04416656   97.80090332    1.23000002    2.76999998
   20.04944420   97.80090332    1.38000000    2.76999998
   20.05360985   93.79769897    1.38000000    2.76999998
   20.05666542   94.12729645    1.50000000    2.76999998
   20.05999947   96.84470367    3.34999990    2.76999998
   20.06305504   87.94640350    4.05999994    2.78999996
   20.06361008   94.40160370    4.05999994    2.78999996
   20.06666756   90.57409668    2.19000006    2.78999996
   20.07000160   91.28559875    2.48000002    2.78999996
   20.07333374   92.68280029    4.90999985    2.78999996
   20.07638931  108.84200287    4.90999985    2.78999996
   20.07972336   97.99569702    4.90999985    2.17000008
   20.08277893   -1.00000000    4.90999985    1.91999996
   20.08611107  183.03399658    4.90999985    1.48000002
   20.09222221  183.03399658    4.90999985    2.80999994
   20.09638977   86.96459961    4.90999985    2.89000010
   20.09972191   94.95520020    4.90999985    2.89000010
   20.10277748   87.64669800    4.90999985    2.86999989
   20.10611153   90.29589844    4.90999985    2.82999992
   20.10944557   90.48480225    4.90999985    2.84999990
   20.11250114   88.84249878    4.90999985    2.82999992
   20.11583328  102.66000366    4.90999985    2.73000002
   20.11888885   -1.00000000    4.90999985    1.48000002
   20.12222290   -1.00000000    4.90999985    0.28000000
   20.12527847  117.50299835    4.90999985    1.91999996
   20.12861061   89.91850281    4.90999985    2.66000009
   20.14638901   97.88459778    2.32999992    2.75000000
   20.15055466   97.88459778    2.32999992    2.75000000
   20.15472221  120.71900177    3.93000007    2.75000000
   20.15777779   87.07920074    3.34999990    2.75000000
   20.16110992   86.53179932    3.55999994    2.76999998
   20.16416550   89.69470215    4.90999985    2.76999998
   20.16749954   89.35089874    4.90999985    2.78999996
   20.17083359  142.73800659    4.90999985    2.75000000
   20.17388916   -1.00000000    4.90999985    0.70999998
   20.17722130  183.27999878    4.90999985    2.15000010
   20.17944336   92.02010345    4.90999985    2.51999998
   20.18083191   90.76039886    4.90999985    2.78999996
   20.18416595   91.37290192    4.90999985    2.80999994
   20.18722153  101.65499878    1.44000006    2.75000000
   20.19333267  101.65499878    1.41999996    2.73000002
   20.19749832   89.09339905    1.44000006    2.73000002
   20.20055580   88.83989716    1.48000002    2.73000002
   20.20388985   96.27200317    1.51999998    2.73000002
   20.20722389   84.32800293    1.53999996    2.73000002
   20.21027946   87.91649628    1.53999996    2.73000002
   20.21277809   84.58879852    1.53999996    2.73000002
   20.21389008   85.77880096    1.53999996    2.73000002
   20.21722221   89.07029724    1.53999996    2.73000002
   20.22027779   97.65989685    1.55999994    2.75000000
   20.22361183   98.34239960    1.60000002    2.73000002
   20.22694588   88.47879791    1.60000002    2.75000000
   20.23000145   88.31089783    1.61000001    2.75000000
   20.23611069   88.31089783    1.60000002    2.75000000
   20.24027824   93.26599884    1.60000002    2.73000002
   20.24361229   89.77490234    1.58000004    2.73000002
   20.24611092   90.87519836    1.60000002    2.75000000
   20.24722290   87.98030090    1.60000002    2.75000000
   20.25055504   89.26750183    4.63999987    2.75000000
   20.25361061   86.05629730    4.90999985    2.75000000
   20.25694466   98.16619873    4.90999985    2.73000002
   20.26027870   81.51300049    3.93000007    2.73000002
   20.26333427   86.35910034    3.09999990    2.73000002
   20.26666641   82.58239746    3.25000000    2.75000000
   20.26972198   87.10959625    4.19999981    2.73000002
   20.27305603   84.65119934    1.50000000    2.75000000
   20.27888870   84.65119934    1.48000002    2.71000004
   20.28305435   84.44969940    1.50000000    2.73000002
   20.28638840   95.88230133    1.50000000    2.71000004
   20.28972244   89.14209747    1.53999996    2.73000002
   20.29277802   87.38359833    1.53999996    2.73000002
   20.29611015   86.08429718    1.66999996    2.73000002
   20.29916573   92.28769684    1.58000004    2.73000002
   20.30249977   87.78600311    1.60000002    2.73000002
   20.30583191   85.49299622    1.53999996    2.73000002
   20.30888748   86.24189758    1.51999998    2.73000002
   20.31222153   83.87490082    1.48000002    2.73000002
   20.31416512   85.84130096    1.48000002    2.73000002
   20.31583214   83.98190308    1.48000002    2.73000002
   20.32194519   83.98190308    1.44000006    2.73000002
   20.32611275   85.72440338    1.44000006    2.73000002
   20.32916832   85.69860077    1.44000006    2.73000002
   20.33250046   83.51399994    1.41999996    2.73000002
   20.33555603   81.43990326    1.39999998    2.75000000
   20.33889008   86.43250275    1.41999996    2.73000002
   20.34222221   82.65309906    1.44000006    2.71000004
   20.34527779   90.14710236    1.44000006    2.73000002
   20.34749985   90.65959930    1.44000006    2.73000002
   20.34889030   89.59860229    1.44000006    2.73000002
   20.35222244   84.69249725    1.44000006    2.73000002
   20.35555649   95.18669891    1.41999996    2.73000002
   20.35861206   94.15579987    1.39999998    2.71000004
   20.36472321   94.15579987    1.39999998    2.73000002
   20.36888885   88.48220062    1.39999998    2.71000004
   20.37194443   86.36049652    1.39999998    2.73000002
   20.37527847   89.54620361    1.41999996    2.73000002
   20.37861061   95.86640167    1.41999996    2.73000002
   20.38083267   94.11389923    1.41999996    2.73000002
   20.38222313   92.36319733    1.41999996    2.73000002
   20.38555527   95.27290344    1.44000006    2.73000002
   20.38861084   94.28279877    1.46000004    2.73000002
   20.39194489   91.99680328    1.48000002    2.73000002
   20.39500046   88.85829926    1.48000002    2.73000002
   20.39833260   92.58180237    1.51999998    2.71000004
   20.40166664   89.92120361    1.51999998    2.71000004
   20.40749931   89.92120361    1.51999998    2.73000002
   20.41166687   93.74279785    1.55999994    2.73000002
   20.41416550   85.71060181    1.60000002    2.73000002
   20.41527748   87.20030212    2.09999990    2.75000000
   20.41860962   90.19670105    4.90999985    2.78999996
   20.42166519  110.52799988    4.90999985    2.78999996
   20.42499924   -1.00000000    4.90999985    1.80999994
   20.42805481   -1.00000000    4.90999985    0.69000000
   20.43138885   -1.00000000    4.90999985    0.61000001
   20.43472099   -1.00000000    4.90999985    0.52999997
   20.43777657   -1.00000000    4.90999985    0.50000000
   20.44111061   -1.00000000    4.90999985    0.69000000
   20.44444275  107.56900024    4.90999985    1.01999998
   20.45027924  107.56900024    4.90999985    2.53999996
   20.45444489   -1.00000000    4.90999985    0.98000002
   20.45777893   -1.00000000    4.90999985    0.69000000
   20.46111107   -1.00000000    4.90999985    1.05999994
   20.46416664  135.82299805    4.90999985    1.69000006
   20.46750069  103.61399841    4.90999985    2.76999998
   20.47055626  100.53099823    4.90999985    2.71000004
   20.47389030  103.76999664    2.75000000    2.69000006
   20.47722244   99.20469666    2.40000010    2.71000004
   20.48027802   99.23429871    2.15000010    2.71000004
   20.48139000   98.75990295    2.25000000    2.71000004
   20.48388863   98.28150177    2.23000002    2.71000004
   20.48722267  142.23699951    1.85000002    2.15000010
   20.49333382  142.23699951    3.78999996    2.69000006
   20.49722290   95.95480347    3.45000005    2.69000006
   20.50055504   99.48269653    1.85000002    2.67000008
   20.50388908  100.18599701    2.01999998    2.71000004
   20.50694466   97.58080292    2.98000002    2.69000006
   20.51027870  123.77400208    4.53000021    2.64000010
   20.51361084  148.73300171    4.90999985    1.66999996
   20.51472282  153.46499634    4.90999985    1.66999996
   20.51694489  119.40599823    4.90999985    1.76999998
   20.52027702  109.00299835    4.90999985    2.32999992
   20.52333260   94.23090363    4.90999985    2.57999992
   20.52666664   93.18190002    4.90999985    2.59999990
   20.53000069   95.65370178    4.90999985    2.75000000
   20.53610992   95.65370178    4.90999985    2.80999994
   20.54027748  146.00000000    4.90999985    2.84999990
   20.54333305   96.96530151    4.90999985    1.85000002
   20.54666710   -1.00000000    4.90999985    1.94000006
   20.55027771   -1.00000000    4.90999985    0.55000001
   20.55333328   -1.00000000    4.90999985    0.38000000
   20.55666542   -1.00000000    4.90999985    0.23000000
   20.55999947   -1.00000000    4.90999985    0.15000001
   20.56305504   -1.00000000    4.90999985    0.17000000
   20.56638718   -1.00000000    4.90999985    0.17000000
   20.56944466   -1.00000000    4.90999985    0.20999999
   20.57277870  138.84700012    4.90999985    1.51999998
   20.57888985  138.84700012    4.90999985    2.71000004
   20.58305550   -1.00000000    4.90999985    1.16999996
   20.58638954   92.28839874    4.90999985    1.39999998
   20.58944511  117.74500275    4.90999985    2.66000009
   20.59277916   89.30860138    4.90999985    2.69000006
   20.59583473   90.16960144    4.90999985    2.76999998
   20.59916687   94.57379913    4.90999985    2.76999998
   20.60250092   91.12419891    4.90999985    2.76999998
   20.60555649  102.05400085    3.32999992    2.76999998
   20.60888863   94.61669922    1.98000002    2.73000002
   20.61222267   90.78009796    1.75000000    2.75000000
   20.61472321   91.93370056    1.64999998    2.73000002
   20.61583328   88.52770233    1.64999998    2.71000004
   20.62166595   88.52770233    1.85000002    2.73000002
   20.62583351  115.22599792    4.90999985    2.75000000
   20.62916756  130.89799500    4.90999985    1.28999996
   20.63222313  104.80000305    4.90999985    2.09999990
   20.63555527  120.76499939    4.90999985    1.66999996
   20.63888931   89.41210175    4.90999985    2.78999996
   20.64194489   96.72149658    4.90999985    2.76999998
   20.64527702   96.88189697    4.90999985    2.76999998
   20.64805603   90.74179840    3.30999994    2.75000000
   20.64888954   95.55519867    1.78999996    2.73000002
   20.65222168   94.53790283    1.55999994    2.71000004
   20.65527725   96.83589935    1.50000000    2.71000004
   20.65861130   94.77310181    1.46000004    2.71000004
   20.66472244   94.77310181    1.48000002    2.71000004
   20.66860962   90.46959686    1.50000000    2.71000004
   20.67194366   94.50700378    1.50000000    2.69000006
   20.67527771   94.26509857    1.50000000    2.71000004
   20.67833328   94.36589813    1.50000000    2.71000004
   20.68194389   95.97160339    1.50000000    2.71000004
   20.68249893   90.00160217    1.50000000    2.71000004
   20.68555450   89.53430176    1.50000000    2.69000006
   20.68888855  103.15799713    1.50000000    2.69000006
   20.69222069   93.14880371    1.50000000    2.69000006
   20.69527626   88.90180206    1.50000000    2.69000006
   20.69861031   90.94940186    1.50000000    2.71000004
   20.70194435   95.63539886    1.50000000    2.69000006
   20.70750046   95.63539886    1.50000000    2.69000006
   20.71166801   98.86530304    1.48000002    2.69000006
   20.71472359   91.34670258    1.48000002    2.69000006
   20.71527863   89.71640015    1.48000002    2.69000006
   20.71861076   86.59159851    1.48000002    2.69000006
   20.72166634   88.85820007    1.48000002    2.69000006
   20.72500038   92.06020355    1.48000002    2.71000004
   20.72833443   91.33950043    1.48000002    2.69000006
   20.73139000   91.31729889    1.48000002    2.69000006
   20.73472214   90.74819946    1.48000002    2.69000006
   20.73777771   99.19450378    1.48000002    2.69000006
   20.74111176   84.19650269    1.48000002    2.69000006
   20.74444389   91.23500061    1.48000002    2.69000006
   20.75027847   91.23500061    1.48000002    2.69000006
   20.75444412   94.07669830    1.48000002    2.69000006
   20.75777817   93.42440033    1.48000002    2.69000006
   20.76083374   95.98719788    1.50000000    2.67000008
   20.76416588   93.35800171    1.50000000    2.69000006
   20.76722145   85.42620087    1.50000000    2.69000006
   20.77055550  101.95300293    1.50000000    2.69000006
   20.77388954   84.82630157    1.53999996    2.67000008
   20.77694511   88.50879669    1.53999996    2.67000008
   20.78027725   88.26319885    1.55999994    2.67000008
   20.78138924   88.31649780    1.55999994    2.67000008
   20.78388786   93.70050049    1.55999994    2.67000008
   20.78722191   98.47480011    1.55999994    2.69000006
   20.79305458   98.47480011    1.55999994    2.67000008
   20.79722214   96.80699921    1.58000004    2.69000006
   20.80055428  100.63800049    1.58000004    2.67000008
   20.80360985   99.42369843    1.58000004    2.67000008
   20.80694389   97.51239777    1.58000004    2.67000008
   20.81027794   93.67929840    1.58000004    2.67000008
   20.81333351   99.65560150    1.58000004    2.67000008
   20.81472206   89.94640350    1.58000004    2.67000008
   20.81694603  107.70800018    1.58000004    2.67000008
   20.82027817   98.31199646    1.55999994    2.67000008
   20.82333374   95.71669769    1.55999994    2.67000008
   20.82666779   90.92189789    1.55999994    2.67000008
   20.83000183   91.53359985    1.55999994    2.67000008
   20.83611107   91.53359985    1.55999994    2.67000008
   20.84000015  102.71900177    1.55999994    2.67000008
   20.84333420  103.51399994    1.58000004    2.67000008
   20.84666824   97.71109772    1.58000004    2.66000009
   20.84833336   92.45570374    1.58000004    2.66000009
   20.85027885   97.03260040    1.55999994    2.67000008
   20.85361099   98.18779755    1.55999994    2.67000008
   20.85666656  101.52500153    1.55999994    2.67000008
   20.86000061  100.01699829    1.61000001    2.67000008
   20.86305618   94.30269623    2.57999992    2.69000006
   20.86638832   90.06449890    3.43000007    2.71000004
   20.86972237   95.34359741    2.39000010    2.71000004
   20.87277794   95.69819641    1.98000002    2.71000004
   20.87888908   95.69819641    2.26999998    2.69000006
   20.88305473   94.81230164    2.39000010    2.69000006
   20.88611031   96.88469696    2.48000002    2.67000008
   20.88944435  100.57700348    2.84999990    2.61999989
   20.89277840   99.52300262    3.32999992    2.64000010
   20.89583397   93.36119843    4.05999994    2.64000010
   20.89916611   82.24990082    4.80999994    2.67000008
   20.90222168  100.41699982    4.90999985    2.51999998
   20.90555573  106.60700226    4.90999985    2.46000004
   20.90888786   96.97250366    4.90999985    2.36999989
   20.91194344  120.36900330    4.90999985    2.50000000
   20.91499901  227.32699585    4.90999985    2.21000004
   20.91555595   86.33989716    4.90999985    2.15000010
   20.92555428   -1.00000000    4.90999985    1.28999996
   20.92888832  233.27699280    4.90999985    1.48000002
   20.93222237  120.64700317    4.90999985    2.44000006
   20.93527603  123.39800262    4.90999985    2.48000002
   20.93861008  118.37799835    4.90999985    2.30999994
   20.94194412  113.23000336    4.90999985    2.28999996
   20.94499969  165.50399780    4.90999985    2.26999998
   20.94833183  203.90400696    4.90999985    1.98000002
   20.94888878  132.46200562    4.90999985    1.89999998
   20.95194435   -1.00000000   -1.00000000   -1.00000000
   20.95527840  187.09300232    4.90999985    1.98000002
   20.95861244   -1.00000000    4.90999985    1.96000004
   20.96444511   -1.00000000    4.90999985    1.66999996
   20.96861076   -1.00000000    4.90999985    1.53999996
   20.97194481  256.14300537    4.90999985    1.71000004
   20.97500038  137.83799744    4.90999985    2.09999990
   20.97833443  104.92099762    4.90999985    2.13000011
   20.98166656   -1.00000000    4.90999985    1.83000004
   20.98500061   -1.00000000    4.90999985    1.64999998
   20.98833275   -1.00000000    4.90999985    1.55999994
   20.99138832   -1.00000000    4.90999985    1.19000006
   20.99472237   -1.00000000    4.90999985    0.88000000
   20.99805641   -1.00000000    4.90999985    0.56999999
   21.00111198   -1.00000000    4.90999985    0.44000000
   21.01138878   -1.00000000    4.84999990    0.05000000
   21.01472282   -1.00000000    4.84999990    0.05000000
   21.01805496   -1.00000000    4.84999990    0.05000000
   21.02138901   -1.00000000    4.84999990    0.05000000
   21.02444458   -1.00000000    4.84999990    0.05000000
   21.02777672   -1.00000000    4.84999990    0.05000000
   21.03111076   -1.00000000    4.84999990    0.05000000
   21.03416634   -1.00000000    4.84999990    0.05000000
   21.03750038   -1.00000000    4.84999990    0.05000000
   21.04083252   -1.00000000    4.84999990    0.05000000
   21.04388809  129.42300415    4.84999990    0.05000000
   21.05027771  129.42300415    4.84999990    0.05000000
   21.05444336   -1.00000000    4.84999990    0.05000000
   21.05749893  153.50000000    4.84999990    0.05000000
   21.06083298  109.49099731    4.84999990    0.05000000
   21.06416512  112.70400238    4.84999990    0.05000000
   21.06722260   98.51550293    4.84999990    0.05000000
   21.07055664  102.54599762    4.84999990    0.05000000
   21.07361221  107.73200226    4.84999990    0.05000000
   21.07694626  101.71399689    4.84999990    0.05000000
   21.08027840   95.05290222    4.84999990    0.05000000
   21.08222389  102.93000031    4.84999990    0.05000000
   21.08388901  108.22899628    4.84999990    0.05000000
   21.08694458  110.79699707    4.84999990    0.05000000
   21.09305573  110.79699707    4.84999990    0.05000000
   21.09722328  235.25700378    4.84999990    0.05000000
   21.10027885   -1.00000000    4.84999990    0.05000000
   21.10361099   -1.00000000    4.84999990    0.05000000
   21.10694504   -1.00000000    4.84999990    0.05000000
   21.11000061   -1.00000000    4.84999990    0.05000000
   21.11333466   -1.00000000    4.84999990    0.05000000
   21.11666679  109.87699890    4.84999990    0.05000000
   21.12000084   -1.00000000    4.84999990    0.05000000
   21.12305641   -1.00000000    4.84999990    0.05000000
   21.12638855   49.00770187    4.84999990    0.05000000
   21.12972260  232.84500122    4.84999990    0.05000000
   21.13583374  232.84500122    4.84999990    0.05000000
   21.13999939   -1.00000000    4.84999990    0.05000000
   21.14333344   -1.00000000    4.84999990    0.05000000
   21.14638901   -1.00000000    4.84999990    0.05000000
   21.16361046  111.37699890    4.84999990    0.05000000
   21.16638756  135.02699280    4.84999990    0.05000000
   21.16972160  135.22399902    4.84999990    0.05000000
   21.17305565  104.99199677    4.84999990    0.05000000
   21.26749992   -1.00000000   -1.00000000   -1.00000000
