    HOUR (UT)   FLARE FACTOR    SKY TESTER    SUN TESTER
   11.94805527   -1.00000000   -1.00000000   -1.00000000
   12.01999950  163.15699768    4.90999985    2.11999989
   12.02333355  160.63499451    4.90999985    2.11999989
   12.02638817  162.85400391    4.90999985    2.11999989
   12.02972221  156.42799377    4.90999985    2.11999989
   12.03388977  150.68400574    4.90999985    2.11999989
   12.04027843  150.68400574    4.90999985    2.11999989
   12.04444504  168.79200745    4.90999985    2.11999989
   12.04750061  171.79800415    4.90999985    2.13000011
   12.05083370  158.26300049    4.90999985    2.13000011
   12.05333328  151.25700378    4.90999985    2.13000011
   12.05444431  142.93499756    4.90999985    2.13000011
   12.05749989  144.20599365    4.90999985    2.13000011
   12.06083393  141.29299927    4.90999985    2.13000011
   12.06388950  144.22700500    4.90999985    2.13000011
   12.06722260  143.99800110    4.90999985    2.13000011
   12.07055569  148.84899902    4.90999985    2.13000011
   12.07361126  140.38400269    4.90999985    2.15000010
   12.08555508  149.08000183    0.00000000    0.00000000
   12.08972168  149.08000183    4.90999985    2.15000010
   12.09388828  151.99600220    4.90999985    2.15000010
   12.09722233  138.00300598    4.90999985    2.17000008
   12.10027790  146.28700256    4.90999985    2.17000008
   12.10361195  138.19200134    4.90999985    2.17000008
   12.10694504  143.78999329    4.90999985    2.17000008
   12.11000061  140.26400757    4.90999985    2.17000008
   12.11333370  140.65899658    4.90999985    2.17000008
   12.11666679  138.39399719    4.90999985    2.17000008
   12.11972237  138.71600342    4.90999985    2.17000008
   12.12083340  138.67500305    4.90999985    2.17000008
   12.12333393  146.91099548    4.90999985    2.17000008
   12.12666702  140.86500549    4.90999985    2.17000008
   12.13277817  140.86500549    4.90999985    2.19000006
   12.13666630  141.32200623    4.90999985    2.19000006
   12.14000034  134.83200073    4.90999985    2.19000006
   12.14333344  135.56799316    4.90999985    2.19000006
   12.14638901  134.38999939    4.90999985    2.19000006
   12.14972210  137.88699341    4.90999985    2.19000006
   12.15305519  136.47000122    4.90999985    2.19000006
   12.15416622  143.57600403    4.90999985    2.19000006
   12.15638828  137.67199707    4.90999985    2.19000006
   12.15972137  139.46099854    4.90999985    2.19000006
   12.16305542  139.46800232    4.90999985    2.21000004
   12.17583370  146.20199585    0.00000000    0.00000000
   12.18000031  146.20199585    4.90999985    2.21000004
   12.18416691  141.83500671    4.90999985    2.21000004
   12.18722248  139.40800476    4.90999985    2.21000004
   12.19055557  145.19099426    4.90999985    2.21000004
   12.20027733  134.10200500    4.90999985    2.21000004
   12.20305538  131.08599854    4.90999985    2.21000004
   12.20638847  136.39700317    4.90999985    2.21000004
   12.20944405  138.43699646    4.90999985    2.21000004
   12.21277714  141.45700073    4.90999985    2.23000002
   12.21611118  140.52000427    4.90999985    2.23000002
   12.21916580  128.56599426    4.90999985    2.21000004
   12.22249985  136.30700684    4.90999985    2.23000002
   12.22805500  136.30700684    4.90999985    2.23000002
   12.23222160  138.13800049    4.90999985    2.23000002
   12.23666668  149.28599548    4.90999985    2.23000002
   12.24000072  147.30200195    4.90999985    2.23000002
   12.24305534  137.67399597    4.90999985    2.23000002
   12.24638939  144.68699646    4.90999985    2.23000002
   12.24972248  144.01899719    4.90999985    2.23000002
   12.25305557  142.19999695    4.90999985    2.23000002
   12.25611115  153.46499634    4.90999985    2.25000000
   12.25888920  143.08000183    4.90999985    2.23000002
   12.26000023  155.44900513    4.90999985    2.23000002
   12.26305580  137.67599487    4.90999985    2.23000002
   12.26638889  138.23300171    4.90999985    2.23000002
   12.27083302  138.23300171    4.90999985    2.23000002
   12.27499962  138.32400513    4.90999985    2.23000002
   12.27805519  140.48399353    4.90999985    2.25000000
   12.28138828  148.75700378    4.90999985    2.25000000
   12.28472233  152.43200684    4.90999985    2.25000000
   12.28805637  150.88699341    4.90999985    2.25000000
   12.29111195  145.42900085    4.90999985    2.23000002
   12.29222298  135.14399719    4.90999985    2.25000000
   12.29500008  143.21400452    4.90999985    2.23000002
   12.29805565  142.22300720    4.90999985    2.23000002
   12.30138874  142.57200623    4.90999985    2.23000002
   12.30472279  145.01400757    4.90999985    2.25000000
   12.30777836  136.77299500    4.90999985    2.25000000
   12.31361103  136.77299500    4.90999985    2.25000000
   12.31777763  180.17500305    4.90999985    2.25000000
   12.32111073  157.18899536    4.90999985    2.25000000
   12.32416630  165.57699585    4.90999985    2.25000000
   12.32583332  172.13099670    4.90999985    2.25000000
   12.32777786  170.10800171    4.90999985    2.25000000
   12.33111095  173.52200317    4.90999985    2.25000000
   12.33444405  176.44900513    4.90999985    2.25000000
   12.33777714  185.61000061    4.90999985    2.25000000
   12.34083271  180.87699890    4.90999985    2.25000000
   12.34416676  175.12399292    4.90999985    2.25000000
   12.34749985  177.05700684    4.90999985    2.25000000
   12.35055637  155.38099670    4.90999985    2.25000000
   12.35638905  155.38099670    4.90999985    2.26999998
   12.36055565  177.30000305    4.90999985    2.26999998
   12.36388969  171.04499817    4.90999985    2.26999998
   12.36722279  181.51100159    4.90999985    2.26999998
   12.37138939  185.09599304    4.90999985    2.26999998
   12.37472248  182.17799377    4.90999985    2.26999998
   12.37777805  193.81500244    4.90999985    2.26999998
   12.38111115  188.86000061    4.90999985    2.26999998
   12.38444424  200.91299438    4.90999985    2.26999998
   12.38749981  170.84800720    4.90999985    2.28999996
   12.39083290  180.00900269    4.90999985    2.28999996
   12.39249992  171.71099854    4.90999985    2.28999996
   12.39444447  142.49800110    4.90999985    2.28999996
   12.39944458  142.49800110    4.90999985    2.28999996
   12.40361118  159.89799500    4.90999985    2.28999996
   12.40666676  168.58399963    4.90999985    2.28999996
   12.40999985  183.60099792    4.90999985    2.28999996
   12.41333294  167.49499512    4.90999985    2.28999996
   12.42555618  176.25399780    0.00000000    0.00000000
   12.42611122  152.74899292    4.90999985    2.28999996
   12.42916679  170.00500488    4.90999985    2.28999996
   12.43222237  167.48300171    4.90999985    2.30999994
   12.43555546  141.49099731    4.90999985    2.28999996
   12.44305515  141.49099731    4.90999985    2.28999996
   12.44722271  145.58399963    4.90999985    2.28999996
   12.45027733  135.79800415    4.90999985    2.30999994
   12.45361137  147.79400635    4.90999985    2.30999994
   12.45694447  134.57699585    4.90999985    2.30999994
   12.45944405  141.02099609    4.90999985    2.30999994
   12.46055508  145.40199280    4.90999985    2.30999994
   12.46388912  138.68899536    4.90999985    2.30999994
   12.46722221  134.89199829    4.90999985    2.32999992
   12.47027779  129.40499878    4.90999985    2.32999992
   12.47361088  131.55499268    4.90999985    2.32999992
   12.47666645  147.68200684    4.90999985    2.30999994
   12.47999954  151.05499268    4.90999985    2.32999992
   12.48500061  151.05499268    4.90999985    2.30999994
   12.48916721  148.32899475    4.90999985    2.32999992
   12.49250031  144.90199280    4.90999985    2.32999992
   12.49277782  139.54899597    4.90999985    2.32999992
   12.49583340  140.88999939    4.90999985    2.32999992
   12.49916649  131.30599976    4.90999985    2.32999992
   12.50222206  140.05900574    4.90999985    2.32999992
   12.51444435  126.05500031    0.00000000    0.00000000
   12.51777744  126.03099823    4.90999985    2.32999992
   12.52083302  129.79100037    4.90999985    2.32999992
   12.52416611  141.23699951    4.90999985    2.32999992
   12.52833271  141.23699951    4.90999985    2.32999992
   12.54111195  136.06700134    0.00000000    0.00000000
   12.54444504  125.49199677    4.90999985    2.34999990
   12.54750061  121.95300293    4.90999985    2.32999992
   12.55083370  149.04600525    4.90999985    2.32999992
   12.55416679  135.73599243    4.90999985    2.34999990
   12.55722237  128.70799255    4.90999985    2.32999992
   12.56055546  130.85600281    4.90999985    2.32999992
   12.56333351  140.73100281    4.90999985    2.34999990
   12.56416702  138.83200073    4.90999985    2.34999990
   12.56750011  124.40699768    4.90999985    2.34999990
   12.57166672  124.40699768    4.90999985    2.34999990
   12.57555580  128.92300415    4.90999985    2.34999990
   12.57888889  124.81500244    4.90999985    2.34999990
   12.58222198  128.07299805    4.90999985    2.34999990
   12.58527756  121.37699890    4.90999985    2.34999990
   12.58861065  125.61000061    4.90999985    2.34999990
   12.59194374  125.93699646    4.90999985    2.34999990
   12.59499931  128.42300415    4.90999985    2.34999990
   12.59666634  126.80999756    4.90999985    2.34999990
   12.59861088  121.65599823    4.90999985    2.34999990
   12.60194492  126.07199860    4.90999985    2.36999989
   12.60500050  131.17500305    4.90999985    2.36999989
   12.60833359  127.14499664    4.90999985    2.36999989
   12.61444473  127.14499664    4.90999985    2.34999990
   12.61861134  129.07499695    4.90999985    2.34999990
   12.62166691  129.30499268    4.90999985    2.34999990
   12.62500000  122.41799927    4.90999985    2.36999989
   12.62833309  122.05999756    4.90999985    2.34999990
   12.63027763  128.23399353    4.90999985    2.36999989
   12.63194466  121.50199890    4.90999985    2.36999989
   12.63527775  147.45599365    4.90999985    2.36999989
   12.63833332  143.28999329    4.90999985    2.36999989
   12.64166641  122.75299835    4.90999985    2.36999989
   12.64472198  149.21000671    4.90999985    2.34999990
   12.64805508  122.39900208    4.90999985    2.36999989
   12.65138817  120.45999908    4.90999985    2.34999990
   12.65722179  120.45999908    4.90999985    2.36999989
   12.66138840  130.92700195    4.90999985    2.34999990
   12.66361046  130.53799438    4.90999985    2.34999990
   12.66499996  124.55200195    4.90999985    2.36999989
   12.67666721  130.71600342    0.00000000    0.00000000
   12.68000031  135.22599792    4.90999985    2.36999989
   12.68333340  130.43099976    4.90999985    2.34999990
   12.68638897  128.70199585    4.90999985    2.36999989
   12.68972206  139.46600342    4.90999985    2.34999990
   12.69305515  123.83399963    4.90999985    2.36999989
   12.69611073  127.52300262    4.90999985    2.34999990
   12.69694424  126.09100342    4.90999985    2.34999990
   12.69972229  122.24500275    4.90999985    2.36999989
   12.70527744  122.24500275    4.90999985    2.36999989
   12.70944405  121.40200043    4.90999985    2.36999989
   12.72138882  125.33799744    0.00000000    0.00000000
   12.72472191  124.12799835    4.90999985    2.39000010
   12.72777748  126.49800110    4.90999985    2.39000010
   12.73111057  127.32599640    4.90999985    2.39000010
   12.73416710  124.90499878    4.90999985    2.39000010
   12.73694515  127.22299957    4.90999985    2.39000010
   12.73805618  127.23500061    4.90999985    2.39000010
   12.74111176  125.69400024    4.90999985    2.39000010
   12.74444485  131.98500061    4.90999985    2.39000010
   12.75777817  131.98500061    4.90999985    2.39000010
   12.76194477  124.76100159    4.90999985    2.39000010
   12.76527786  123.34500122    4.90999985    2.39000010
   12.76861095  127.59999847    4.90999985    2.39000010
   12.77166653  127.09400177    4.90999985    2.39000010
   12.77361107  129.81399536    4.90999985    2.39000010
   12.77555561  126.14600372    4.90999985    2.39000010
   12.77861118  124.36499786    4.90999985    2.39000010
   12.78194427  127.02200317    4.90999985    2.39000010
   12.78500080  122.14299774    4.90999985    2.39000010
   12.79194450  122.14299774    4.90999985    2.40000010
   12.79611111  126.83000183    4.90999985    2.39000010
   12.79944515  125.65499878    4.90999985    2.40000010
   12.80277824  123.34700012    4.90999985    2.40000010
   12.80583382  126.14199829    4.90999985    2.39000010
   12.80694485  121.36799622    4.90999985    2.40000010
   12.80972195  123.03500366    4.90999985    2.40000010
   12.81277752  128.55099487    4.90999985    2.40000010
   12.81611156  124.00800323    4.90999985    2.40000010
   12.81944466  122.73799896    4.90999985    2.40000010
   12.82250023  126.58799744    4.90999985    2.40000010
   12.82583332  124.58899689    4.90999985    2.40000010
   12.82888889  126.57900238    4.90999985    2.40000010
   12.83472157  126.57900238    4.90999985    2.40000010
   12.84777737  124.56500244    0.00000000    0.00000000
   12.84833336  127.85700226    4.90999985    2.40000010
   12.85138893  124.91100311    4.90999985    2.40000010
   12.85472298  122.32099915    4.90999985    2.40000010
   12.85805607  122.86799622    4.90999985    2.44000006
   12.86222267  128.05099487    4.90999985    2.44000006
   12.86555576  123.94499969    4.90999985    2.44000006
   12.86861134  126.09500122    4.90999985    2.44000006
   12.87194443  156.08799744    4.90999985    2.32999992
   12.87750053  156.08799744    4.90999985    1.44000006
   12.88166714  131.64199829    4.90999985    2.21000004
   12.88222218  129.76400757    4.90999985    2.39000010
   12.88527775  144.95199585    4.90999985    2.32999992
   12.88861084  258.05099487    4.90999985    1.85000002
   12.89194393  259.58898926    4.90999985    1.51999998
   12.89888859   -1.00000000    4.90999985    0.61000001
   12.90222168   84.73570251    4.90999985    0.83999997
   12.91444397  165.07299805    0.00000000    0.00000000
   12.91555500  137.89999390    4.90999985    2.01999998
   12.91805553  131.27900696    4.90999985    2.23000002
   12.92388916  131.27900696    4.90999985    2.48000002
   12.93666649  132.27200317    0.00000000    0.00000000
   12.94000053  134.41799927    4.90999985    2.48000002
   12.94333363  136.47700500    4.90999985    2.32999992
   12.94638920  127.58200073    4.90999985    2.30999994
   12.94972229  124.91100311    4.90999985    2.50000000
   12.95249939  130.47700500    4.90999985    2.50000000
   12.95333290  131.74600220    4.90999985    2.50000000
   12.95666695  128.60400391    4.90999985    2.48000002
   12.96000004  126.30200195    4.90999985    2.48000002
   12.96805477  126.30200195    4.90999985    2.48000002
   12.97222137  135.42599487    4.90999985    2.46000004
   12.97555542  121.88500214    4.90999985    2.36999989
   12.97861099  102.46299744    4.90999985    2.51999998
   12.98194408   -1.00000000    4.90999985    1.94000006
   12.98500061   -1.00000000    4.90999985    0.34000000
   12.98861122   -1.00000000    4.90999985    0.15000001
   12.99194431   -1.00000000    4.90999985    0.20999999
   12.99499989   -1.00000000    4.90999985    0.13000000
   12.99833393   -1.00000000    4.90999985    0.11000000
   13.00138855   -1.00000000    4.90999985    0.09000000
   13.00472260   -1.00000000    4.90999985    0.09000000
   13.05861092  134.27099609    4.90999985    2.46000004
   13.06166649  140.43299866    4.90999985    2.44000006
   13.06500053  144.14199829    4.90999985    2.44000006
   13.06805515  132.50599670    4.90999985    2.46000004
   13.07138920  142.57899475    4.90999985    2.44000006
   13.07472229  139.99499512    4.90999985    2.44000006
   13.07888889  139.99499512    4.90999985    2.48000002
   13.08361053  140.07499695    4.90999985    2.46000004
   13.08666611  142.07899475    4.90999985    2.46000004
   13.09000015  149.12699890    4.90999985    2.46000004
   13.09194374  143.77799988    4.90999985    2.48000002
   13.09472179  135.16200256    4.90999985    2.50000000
   13.09805489  129.51600647    4.90999985    2.51999998
   13.10111141  138.01899719    4.90999985    2.50000000
   13.10444450  123.59600067    4.90999985    2.51999998
   13.10777855  129.64599609    4.90999985    2.51999998
   13.11083412  138.35899353    4.90999985    2.51999998
   13.11416721  146.52400208    4.90999985    2.50000000
   13.11750031  136.80400085    4.90999985    2.46000004
   13.12222195  136.80400085    4.90999985    2.48000002
   13.12694454  124.30300140    4.90999985    2.50000000
   13.13000011  127.21199799    4.90999985    2.55999994
   13.13333321  165.72099304    4.90999985    2.42000008
   13.13666630  141.00999451    4.90999985    1.53999996
   13.13972187  120.02500153    4.90999985    2.48000002
   13.14305496  130.00300598    4.90999985    2.42000008
   13.14611053  140.91900635    4.90999985    2.51999998
   13.14944458  124.24299622    4.90999985    2.50000000
   13.15277767  126.30699921    4.90999985    2.48000002
   13.15583324  129.22099304    4.90999985    2.48000002
   13.15861034  123.65599823    4.90999985    2.48000002
   13.15944386  128.03199768    4.90999985    2.48000002
   13.16527748  128.03199768    4.90999985    2.46000004
   13.16944504  146.86900330    4.90999985    2.46000004
   13.17250061  126.75800323    4.90999985    2.48000002
   13.17583370  124.30000305    4.90999985    2.48000002
   13.17916679  126.45500183    4.90999985    2.48000002
   13.19111156  115.98200226    0.00000000    0.00000000
   13.19444466  148.43600464    4.90999985    2.23000002
   13.19750023  158.07899475    4.90999985    2.50000000
   13.20333290  137.95199585    4.90999985    2.50000000
   13.20805550  137.95199585    4.90999985    1.66999996
   13.21222210  136.20300293    4.90999985    2.40000010
   13.21694374  133.32899475    4.90999985    2.55999994
   13.21999931  132.67300415    4.90999985    2.46000004
   13.22333336  133.08900452    4.90999985    2.25000000
   13.22527695  141.52699280    4.90999985    2.36999989
   13.22805500  131.93200684    4.90999985    2.46000004
   13.23138809  139.36999512    4.90999985    2.51999998
   13.23444462  123.51899719    4.90999985    2.30999994
   13.24666691  134.11099243    0.00000000    0.00000000
   13.25000000  208.59899902    4.90999985    0.75000000
   13.25611115  208.59899902    4.90999985    1.88000000
   13.26027775  131.18600464    4.90999985    2.46000004
   13.27138901  133.03999329    4.90999985    2.50000000
   13.27277756  131.74299622    4.90999985    2.50000000
   13.27611065  131.79200745    4.90999985    2.48000002
   13.27944374  134.13999939    4.90999985    2.50000000
   13.28249931  137.65800476    4.90999985    2.46000004
   13.28583336  135.61999512    4.90999985    2.50000000
   13.28888893  139.39199829    4.90999985    2.48000002
   13.29222298  130.27600098    4.90999985    2.48000002
   13.29888916  130.27600098    4.90999985    2.50000000
   13.30305576  135.97000122    4.90999985    2.51999998
   13.30638885  133.36900330    4.90999985    2.53999996
   13.30944443  138.07000732    4.90999985    2.55999994
   13.31277752  142.91299438    4.90999985    2.46000004
   13.31611156  176.17399597    4.90999985    1.86000001
   13.31916618   -1.00000000    4.90999985    1.60000002
   13.32250023   -1.00000000    4.90999985    1.05999994
   13.32583332   -1.00000000    4.90999985    0.81999999
   13.32888889   -1.00000000    4.90999985    0.76999998
   13.33249950  157.21000671    4.90999985    0.94000000
   13.33583260  128.76800537    4.90999985    2.55999994
   13.34194374  128.76800537    4.90999985    2.42000008
   13.34611034  138.89300537    4.90999985    2.32999992
   13.34916592  149.11799622    4.90999985    1.98000002
   13.35249996   74.21410370    4.90999985    2.21000004
   13.35583401   -1.00000000    4.90999985    1.21000004
   13.35888958   -1.00000000    4.90999985    0.61000001
   13.36999989   -1.00000000    0.00000000    0.00000000
   13.37333393   -1.00000000    4.90999985    0.15000001
   13.37666702   -1.00000000    4.90999985    0.19000000
   13.38000011   -1.00000000    4.90999985    0.38000000
   13.38472176   -1.00000000    4.90999985    0.58999997
   13.38888836  304.70599365    4.90999985    1.46000004
   13.39194393  150.98699951    4.90999985    1.78999996
   13.39527798  231.56900024    4.90999985    2.55999994
   13.39861107  139.95300293    4.90999985    1.91999996
   13.40166664  179.55200195    4.90999985    1.00000000
   13.40388870  262.67898560    4.90999985    1.21000004
   13.40555477  178.86599731    4.90999985    1.61000001
   13.40861034  131.21000671    4.90999985    2.13000011
   13.41194439  140.74000549    4.90999985    2.46000004
   13.41527748  132.67199707    4.90999985    2.59999990
   13.41833401  130.80099487    4.90999985    2.61999989
   13.42166710  124.41500092    4.90999985    2.64000010
   13.43694496  124.41500092    4.90999985    0.40000001
   13.44111156   -1.00000000    4.90999985    0.30000001
   13.44416714   72.30010223    4.90999985    0.63000000
   13.44750023  105.52100372    4.90999985    0.92000002
   13.45083332   23.57019997    4.90999985    1.07000005
   13.45388889  149.47799683    4.90999985    1.14999998
   13.45722198   -1.00000000    4.90999985    1.03999996
   13.46027756  280.92199707    4.90999985    1.13000000
   13.46361065  225.71099854    4.90999985    1.71000004
   13.47027779  225.71099854    4.90999985    2.34999990
   13.47444439  145.99499512    4.90999985    2.40000010
   13.47777748  134.78900146    4.90999985    2.55999994
   13.48111057  140.53799438    4.90999985    2.53999996
   13.48416710  151.66700745    4.90999985    2.53999996
   13.48722267  128.71200562    4.90999985    2.51999998
   13.49055576  139.00999451    4.90999985    2.53999996
   13.49388885  141.48899841    4.90999985    2.53999996
   13.49722290  147.60699463    4.90999985    2.55999994
   13.50027752  135.45199585    4.90999985    2.53999996
   13.50361156  132.43600464    4.90999985    2.55999994
   13.50527763  140.05700684    4.90999985    2.55999994
   13.50722218  141.13000488    4.90999985    2.53999996
   13.51305580  141.13000488    4.90999985    2.53999996
   13.51722240  135.56700134    4.90999985    2.53999996
   13.52055550  162.02499390    4.90999985    2.55999994
   13.52361107  180.65899658    4.90999985    2.55999994
   13.52694416  162.44700623    4.90999985    2.55999994
   13.53027725  167.27999878    4.90999985    2.55999994
   13.53333378  172.89999390    4.90999985    2.55999994
   13.53666687  161.39300537    4.90999985    2.55999994
   13.53861141  176.24899292    4.90999985    2.55999994
   13.54027843  164.12600708    4.90999985    2.57999992
   13.54361153  156.80700684    4.90999985    2.57999992
   13.54666710  162.13099670    4.90999985    2.55999994
   13.55000019  170.31900024    4.90999985    2.53999996
   13.55611134  170.31900024    4.90999985    2.55999994
   13.56000042  170.55499268    4.90999985    2.55999994
   13.56333351  164.98699951    4.90999985    2.55999994
   13.56666660  151.07699585    4.90999985    2.55999994
   13.56999969  163.08700562    4.90999985    2.55999994
   13.57222176  168.32899475    4.90999985    2.55999994
   13.57361126  151.75100708    4.90999985    2.55999994
   13.57666683  164.17100525    4.90999985    2.55999994
   13.57999992  143.02900696    4.90999985    2.55999994
   13.58333302  152.03199768    4.90999985    2.55999994
   13.58638859  142.00500488    4.90999985    2.55999994
   13.58972168  149.60499573    4.90999985    2.55999994
   13.59305477  127.10199738    4.90999985    2.57999992
   13.59888840  127.10199738    4.90999985    1.91999996
   13.60305595  259.15399170    4.90999985    1.30999994
   13.60555553  170.86300659    4.90999985    2.21000004
   13.60666752  195.81900024    4.90999985    2.21000004
   13.60972214  335.38500977    4.90999985    2.15000010
   13.61305618  234.59800720    4.90999985    1.94000006
   13.61638927  187.85800171    4.90999985    1.73000002
   13.61944485  149.48800659    4.90999985    2.11999989
   13.62277794  152.73300171    4.90999985    2.36999989
   13.62611103  164.66000366    4.90999985    2.26999998
   13.62916660  136.02000427    4.90999985    2.57999992
   13.63249969  158.55499268    4.90999985    2.53999996
   13.63555527  146.16900635    4.90999985    2.53999996
   13.64166641  146.16900635    4.90999985    2.57999992
   13.64583302  145.63400269    4.90999985    2.55999994
   13.64916611  149.33000183    4.90999985    2.55999994
   13.65222168  154.97799683    4.90999985    2.57999992
   13.65555477  144.13200378    4.90999985    2.57999992
   13.65888882  138.36700439    4.90999985    2.59999990
   13.66194439  152.37800598    4.90999985    2.55999994
   13.66527748  170.57099915    4.90999985    2.55999994
   13.66833401  156.48699951    4.90999985    2.59999990
   13.67166710  143.45500183    4.90999985    2.50000000
   13.67250061  165.63699341    4.90999985    2.32999992
   13.67527771  175.54600525    4.90999985    2.61999989
   13.67861176  157.57400513    4.90999985    2.11999989
   13.68444443  157.57400513    4.90999985    2.11999989
   13.68861103  156.31500244    4.90999985    1.78999996
   13.69194412  162.58399963    4.90999985    2.53999996
   13.69527817  159.46600342    4.90999985    2.55999994
   13.69833374  149.97399902    4.90999985    2.57999992
   13.70166683  159.99200439    4.90999985    2.55999994
   13.70472240  144.15199280    4.90999985    2.57999992
   13.70583344  132.92300415    4.90999985    2.57999992
   13.70833302  141.04499817    4.90999985    2.59999990
   13.71166611  127.38700104    4.90999985    2.57999992
   13.71472168  150.53100586    4.90999985    2.59999990
   13.71805477  142.48800659    4.90999985    2.59999990
   13.72138882  139.54600525    4.90999985    2.64000010
   13.72749996  139.54600525    4.90999985    2.61999989
   13.73166656  141.72599792    4.90999985    2.64000010
   13.73472214  138.15499878    4.90999985    2.66000009
   13.73805618   -1.00000000    4.90999985    2.39000010
   13.74166679  158.08799744    4.90999985    0.34000000
   13.74499989  146.66400146    4.90999985    2.57999992
   13.74805546  143.46299744    4.90999985    2.61999989
   13.75138855  134.55299377    4.90999985    2.59999990
   13.75444412  148.44799805    4.90999985    2.61999989
   13.75777817  129.80400085    4.90999985    2.61999989
   13.76111126  137.79400635    4.90999985    2.61999989
   13.76416683  136.42900085    4.90999985    2.64000010
   13.77027798  136.42900085    4.90999985    2.69000006
   13.77444458  191.96699524    4.90999985    2.71000004
   13.77777767  135.36599731    4.90999985    2.30999994
   13.78083324  132.95700073    4.90999985    2.66000009
   13.78416729  138.33799744    4.90999985    2.64000010
   13.78750038  134.52600098    4.90999985    2.66000009
   13.79055595  128.46299744    4.90999985    2.66000009
   13.79388905  144.39599609    4.90999985    2.64000010
   13.79694462  143.29400635    4.90999985    2.64000010
   13.80027771  128.78500366    4.90999985    2.64000010
   13.80361176  135.55099487    4.90999985    2.61999989
   13.80611134  130.39100647    4.90999985    2.61999989
   13.80722237  141.88200378    4.90999985    2.59999990
   13.81305599  141.88200378    4.90999985    2.59999990
   13.81722260  148.26300049    4.90999985    2.57999992
   13.82055569  134.64900208    4.90999985    2.57999992
   13.82361126  136.89999390    4.90999985    2.55999994
   13.82694435  125.61599731    4.90999985    2.55999994
   13.83027744  122.47799683    4.90999985    2.55999994
   13.83333302  134.43400574    4.90999985    2.55999994
   13.83666611  143.70199585    4.90999985    2.55999994
   13.83944416  142.43400574    4.90999985    2.57999992
   13.84027767  139.25599670    4.90999985    2.57999992
   13.84361076  126.04100037    4.90999985    2.59999990
   13.84666634  124.64499664    4.90999985    2.59999990
   13.85000038  134.52600098    4.90999985    2.59999990
   13.85583401  134.52600098    4.90999985    2.57999992
   13.86000061  134.78999329    4.90999985    2.57999992
   13.86333370  126.43800354    4.90999985    2.59999990
   13.86666679  132.08500671    4.90999985    2.59999990
   13.86972237  137.75799561    4.90999985    2.59999990
   13.87277794  127.08599854    4.90999985    2.59999990
   13.87333393  126.79199982    4.90999985    2.59999990
   13.87666702  143.70100403    4.90999985    2.59999990
   13.87972260  135.66299438    4.90999985    2.59999990
   13.88305569  131.44500732    4.90999985    2.59999990
   13.88611126  130.47999573    4.90999985    2.59999990
   13.88944435  151.02999878    4.90999985    2.59999990
   13.89277744  128.05400085    4.90999985    2.55999994
   13.89888859  128.05400085    4.90999985    2.59999990
   13.90305519  139.37899780    4.90999985    2.59999990
   13.90638828  134.86799622    4.90999985    2.59999990
   13.90666676  134.09199524    4.90999985    2.57999992
   13.90999985  133.54899597    4.90999985    2.59999990
   13.91305542  129.44900513    4.90999985    2.59999990
   13.91638851  132.27600098    4.90999985    2.59999990
   13.91972256  132.88099670    4.90999985    2.59999990
   13.92277813  135.93899536    4.90999985    2.59999990
   13.92611122  129.96600342    4.90999985    2.61999989
   13.92944431  128.18899536    4.90999985    2.59999990
   13.93249989  128.77000427    4.90999985    2.59999990
   13.93583298  135.61799622    4.90999985    2.59999990
   13.94166660  135.61799622    4.90999985    2.59999990
   13.94583321  134.30299377    4.90999985    2.61999989
   13.94916630  139.34399414    4.90999985    2.61999989
   13.95222187  128.17999268    4.90999985    2.59999990
   13.95555496  129.51800537    4.90999985    2.61999989
   13.95888901  126.81500244    4.90999985    2.59999990
   13.96194458  137.88099670    4.90999985    2.61999989
   13.96527767  137.42799377    4.90999985    2.61999989
   13.96861076  117.85700226    4.90999985    2.59999990
   13.97166634  132.53399658    4.90999985    2.64000010
   13.97305489  125.37500000    4.90999985    2.61999989
   13.97527695  129.61099243    4.90999985    2.61999989
   13.97861099  129.49800110    4.90999985    2.61999989
   13.98444462  129.49800110    4.90999985    2.59999990
   13.98861122  131.84800720    4.90999985    2.61999989
   13.99194431  130.21200562    4.90999985    2.59999990
   13.99527836  131.41400146    4.90999985    2.61999989
   13.99833393  132.51800537    4.90999985    2.61999989
   14.00166702  131.86900330    4.90999985    2.61999989
   14.00472260  120.19400024    4.90999985    2.61999989
   14.00638866  129.56399536    4.90999985    2.61999989
   14.00833321  135.10400391    4.90999985    2.61999989
   14.01166630  130.84800720    4.90999985    2.61999989
   14.01500034  125.84600067    4.90999985    2.61999989
   14.01805496  132.45799255    4.90999985    2.61999989
   14.02138901  134.10699463    4.90999985    2.61999989
   14.02750015  134.10699463    4.90999985    2.61999989
   14.03166676  123.89199829    4.90999985    2.64000010
   14.03472233  127.69100189    4.90999985    2.64000010
   14.03805637  137.74899292    4.90999985    2.64000010
   14.03972244  135.75799561    4.90999985    2.64000010
   14.04166698  128.53500366    4.90999985    2.61999989
   14.04500008  130.26600647    4.90999985    2.61999989
   14.04805565  131.41200256    4.90999985    2.61999989
   14.05138874  133.61700439    4.90999985    2.61999989
   14.05472279  130.00300598    4.90999985    2.61999989
   14.05777836  130.58099365    4.90999985    2.61999989
   14.06111145  133.80499268    4.90999985    2.64000010
   14.06416702  131.77200317    4.90999985    2.61999989
   14.07027817  131.77200317    4.90999985    2.64000010
   14.07444477  132.97200012    4.90999985    2.64000010
   14.07750034  126.08200073    4.90999985    2.61999989
   14.09722233  126.39099884    4.90999985    2.64000010
   14.10055637  131.21899414    4.90999985    2.64000010
   14.10361195  132.05299377    4.90999985    2.64000010
   14.10666752  135.53399658    4.90999985    2.64000010
   14.10750008  130.50500488    4.90999985    2.64000010
   14.11333370  130.50500488    4.90999985    2.64000010
   14.11750031  131.90400696    4.90999985    2.64000010
   14.12055588  138.28199768    4.90999985    2.64000010
   14.12388897  132.81399536    4.90999985    2.64000010
   14.12722206  130.98800659    4.90999985    2.61999989
   14.13027763  133.91299438    4.90999985    2.61999989
   14.13361073  131.28100586    4.90999985    2.61999989
   14.13694477  136.51400757    4.90999985    2.64000010
   14.14000034  131.79699707    4.90999985    2.64000010
   14.14055538  133.04600525    4.90999985    2.64000010
   14.14361095  130.03399658    4.90999985    2.64000010
   14.14694405  139.73399353    4.90999985    2.64000010
   14.14999962  126.20600128    4.90999985    2.64000010
   14.15611076  126.20600128    4.90999985    2.64000010
   14.16027737  135.24099731    4.90999985    2.66000009
   14.16361046  135.04800415    4.90999985    2.64000010
   14.16694450  134.85299683    4.90999985    2.66000009
   14.17000008  124.42199707    4.90999985    2.66000009
   14.17333412  132.87800598    4.90999985    2.64000010
   14.17388916  134.69799805    4.90999985    2.64000010
   14.17694473  137.37600708    4.90999985    2.64000010
   14.18027782  131.80700684    4.90999985    2.64000010
   14.18333340  134.69400024    4.90999985    2.64000010
   14.18666649  131.80900574    4.90999985    2.64000010
   14.19000053  133.79600525    4.90999985    2.61999989
   14.19305515  133.33200073    4.90999985    2.64000010
   14.19888878  133.33200073    4.90999985    2.66000009
   14.20305538  133.53300476    4.90999985    2.64000010
   14.20638847  128.08700562    4.90999985    2.64000010
   14.20694447  126.07399750    4.90999985    2.64000010
   14.21027756  123.58499908    4.90999985    2.64000010
   14.21333313  131.55900574    4.90999985    2.66000009
   14.21666622  131.36000061    4.90999985    2.66000009
   14.21972179  129.47599792    4.90999985    2.64000010
   14.22305489  131.20599365    4.90999985    2.64000010
   14.22638798  132.87500000    4.90999985    2.64000010
   14.22944355  125.09799957    4.90999985    2.64000010
   14.23277760  141.91799927    4.90999985    2.64000010
   14.23611164  135.77000427    4.90999985    2.64000010
   14.24194431  135.77000427    4.90999985    2.61999989
   14.24611092  135.94200134    4.90999985    2.64000010
   14.24916649  136.53599548    4.90999985    2.64000010
   14.25249958  129.59700012    4.90999985    2.64000010
   14.25555515  134.76899719    4.90999985    2.64000010
   14.25888920  129.17399597    4.90999985    2.64000010
   14.26222229  130.16200256    4.90999985    2.64000010
   14.26527786  133.07499695    4.90999985    2.64000010
   14.26861095  136.77400208    4.90999985    2.66000009
   14.27194405  139.58000183    4.90999985    2.66000009
   14.27361107  138.48199463    4.90999985    2.66000009
   14.27527714  144.19099426    4.90999985    2.66000009
   14.27861118  136.32099915    4.90999985    2.66000009
   14.28472233  136.32099915    4.90999985    2.66000009
   14.28888893  133.80000305    4.90999985    2.67000008
   14.29194450  136.58200073    4.90999985    2.66000009
   14.29527855  130.18099976    4.90999985    2.66000009
   14.29861164  134.17300415    4.90999985    2.66000009
   14.30166721  140.58999634    4.90999985    2.66000009
   14.30500031  128.99299622    4.90999985    2.66000009
   14.30694485  134.29400635    4.90999985    2.66000009
   14.30888939  135.33399963    4.90999985    2.66000009
   14.31194496  130.98800659    4.90999985    2.66000009
   14.31527805  140.70599365    4.90999985    2.66000009
   14.31833363  134.71000671    4.90999985    2.66000009
   14.32166672  127.77200317    4.90999985    2.67000008
   14.32750034  127.77200317    4.90999985    2.66000009
   14.33166695  130.42199707    4.90999985    2.66000009
   14.33500004  137.13900757    4.90999985    2.66000009
   14.33805561  132.39900208    4.90999985    2.66000009
   14.34027767  135.57899475    4.90999985    2.66000009
   14.34194374  127.18699646    4.90999985    2.66000009
   14.34499931  133.96400452    4.90999985    2.66000009
   14.34833336  131.36300659    4.90999985    2.64000010
   14.35138893  134.99000549    4.90999985    2.66000009
   14.35472298  140.27400208    4.90999985    2.64000010
   14.35805607  138.14799500    4.90999985    2.66000009
   14.36111164  125.94799805    4.90999985    2.66000009
   14.36444473  128.05799866    4.90999985    2.66000009
   14.37027836  128.05799866    4.90999985    2.66000009
   14.37444496  129.25799561    4.90999985    2.66000009
   14.37777805  136.09199524    4.90999985    2.66000009
   14.38111115  133.07200623    4.90999985    2.66000009
   14.38416672  132.30499268    4.90999985    2.66000009
   14.38749981  148.25300598    4.90999985    2.66000009
   14.39055538  136.83799744    4.90999985    2.66000009
   14.39388847  133.07200623    4.90999985    2.67000008
   14.39722252  137.82499695    4.90999985    2.67000008
   14.40027714  133.49600220    4.90999985    2.66000009
   14.40361118  122.49299622    4.90999985    2.66000009
   14.40694427  128.59399414    4.90999985    2.66000009
   14.40749931  133.62399292    4.90999985    2.67000008
   14.41333294  133.62399292    4.90999985    2.67000008
   14.41750050  138.58299255    4.90999985    2.66000009
   14.42055607  129.55000305    4.90999985    2.66000009
   14.42388916  133.42100525    4.90999985    2.66000009
   14.42694473  135.00500488    4.90999985    2.66000009
   14.43027782  134.58700562    4.90999985    2.67000008
   14.43361092  136.38400269    4.90999985    2.67000008
   14.43666649  142.21099854    4.90999985    2.67000008
   14.44000053  139.81399536    4.90999985    2.66000009
   14.44083309  128.26499939    4.90999985    2.66000009
   14.44361115  130.64300537    4.90999985    2.66000009
   14.44694424  133.07200623    4.90999985    2.66000009
   14.45027733  137.55700684    4.90999985    2.66000009
   14.45611095  137.55700684    4.90999985    2.66000009
   14.46027756  129.20899963    4.90999985    2.66000009
   14.46333313  128.00999451    4.90999985    2.67000008
   14.46666622  130.66999817    4.90999985    2.67000008
   14.46999931  130.57499695    4.90999985    2.67000008
   14.47305489  130.08399963    4.90999985    2.66000009
   14.47416592  123.83799744    4.90999985    2.66000009
   14.47666645  135.97399902    4.90999985    2.67000008
   14.47999954  132.53700256    4.90999985    2.66000009
   14.48305511  130.09700012    4.90999985    2.67000008
   14.48638916  136.81799316    4.90999985    2.67000008
   14.48972225  130.07000732    4.90999985    2.67000008
   14.49277782  123.92099762    4.90999985    2.67000008
   14.49888897  123.92099762    4.90999985    2.67000008
   14.50305557  127.57399750    4.90999985    2.66000009
   14.50638866  127.18900299    4.90999985    2.67000008
   14.50749969  129.27000427    4.90999985    2.67000008
   14.50972176  140.24000549    4.90999985    2.67000008
   14.51305580  137.91099548    4.90999985    2.67000008
   14.51638889  122.32099915    4.90999985    2.67000008
   14.51944447  135.47700500    4.90999985    2.67000008
   14.52277756  134.78300476    4.90999985    2.67000008
   14.52611065  129.48800659    4.90999985    2.67000008
   14.52916622  134.79600525    4.90999985    2.67000008
   14.53249931  130.82499695    4.90999985    2.67000008
   14.53555584  130.87300110    4.90999985    2.67000008
   14.54166698  130.87300110    4.90999985    2.67000008
   14.54583359  128.48699951    4.90999985    2.67000008
   14.54916668  130.24299622    4.90999985    2.67000008
   14.55222225  127.97499847    4.90999985    2.67000008
   14.55555534  128.01400757    4.90999985    2.67000008
   14.55888939  130.35400391    4.90999985    2.67000008
   14.56194496  131.33500671    4.90999985    2.67000008
   14.56527805  128.40100098    4.90999985    2.67000008
   14.56833363  130.68099976    4.90999985    2.67000008
   14.57166672  121.01000214    4.90999985    2.67000008
   14.57388878  117.96800232    4.90999985    2.67000008
   14.57527733  124.67700195    4.90999985    2.67000008
   14.57861137  117.82800293    4.90999985    2.69000006
   14.58444405  117.82800293    4.90999985    2.67000008
   14.58861065  120.71499634    4.90999985    2.67000008
   14.59194374  129.86599731    4.90999985    2.67000008
   14.59527779  126.38500214    4.90999985    2.66000009
   14.59833336  123.57700348    4.90999985    2.67000008
   14.60166740  126.12699890    4.90999985    2.66000009
   14.60500050  123.29199982    4.90999985    2.67000008
   14.60722256  124.86799622    4.90999985    2.67000008
   14.60861111  125.98799896    4.90999985    2.67000008
   14.61194515  125.01599884    4.90999985    2.67000008
   14.61500072  125.65599823    4.90999985    2.67000008
   14.61833382  128.40899658    4.90999985    2.67000008
   14.62166691  122.07900238    4.90999985    2.66000009
   14.62750053  122.07900238    4.90999985    2.67000008
   14.63222218  126.63300323    4.90999985    2.67000008
   14.63555527  123.39299774    4.90999985    2.67000008
   14.63861084  120.00099945    4.90999985    2.67000008
   14.64055538  122.17600250    4.90999985    2.67000008
   14.64222240  125.30599976    4.90999985    2.69000006
   14.64555550  126.37799835    4.90999985    2.67000008
   14.64888859  126.09999847    4.90999985    2.67000008
   14.65194416  118.11599731    4.90999985    2.67000008
   14.65527725  122.76899719    4.90999985    2.67000008
   14.65833282  120.60500336    4.90999985    2.67000008
   14.66166592  130.03700256    4.90999985    2.67000008
   14.66499996  121.85800171    4.90999985    2.69000006
   14.67027855  121.85800171    4.90999985    2.67000008
   14.67444515  125.74900055    4.90999985    2.67000008
   14.67777824  125.28700256    4.90999985    2.67000008
   14.68083382  125.92700195    4.90999985    2.67000008
   14.68416691  127.14399719    4.90999985    2.69000006
   14.68722248  125.60900116    4.90999985    2.69000006
   14.69055557  118.55400085    4.90999985    2.67000008
   14.69388866  123.07499695    4.90999985    2.67000008
   14.69694424  117.12300110    4.90999985    2.69000006
   14.70027733  118.24600220    4.90999985    2.69000006
   14.70361137  118.77500153    4.90999985    2.69000006
   14.70666695  120.75599670    4.90999985    2.67000008
   14.70749950  120.82099915    4.90999985    2.67000008
   14.71305561  120.82099915    4.90999985    2.69000006
   14.71722221  119.63899994    4.90999985    2.69000006
   14.72055531  120.24500275    4.90999985    2.67000008
   14.72361088  120.33599854    4.90999985    2.69000006
   14.72694397  122.65799713    4.90999985    2.69000006
   14.73027706  116.39099884    4.90999985    2.69000006
   14.73333359  121.16500092    4.90999985    2.69000006
   14.73666668  121.80599976    4.90999985    2.69000006
   14.74000072  127.25299835    4.90999985    2.69000006
   14.74083328  122.01699829    4.90999985    2.69000006
   14.74333382  119.72100067    4.90999985    2.69000006
   14.74666691  122.27200317    4.90999985    2.69000006
   14.75000000  126.24700165    4.90999985    2.69000006
   14.75611115  126.24700165    4.90999985    2.69000006
   14.76027775  124.76399994    4.90999985    2.67000008
   14.76333332  122.15899658    4.90999985    2.69000006
   14.76666641  130.15800476    4.90999985    2.69000006
   14.76972198  124.93299866    4.90999985    2.69000006
   14.77305508  126.47699738    4.90999985    2.67000008
   14.77416611  123.24500275    4.90999985    2.67000008
   14.77666664  123.61900330    4.90999985    2.67000008
   14.77999973  117.20700073    4.90999985    2.67000008
   14.78333378  121.25000000    4.90999985    2.67000008
   14.78638935  123.24199677    4.90999985    2.67000008
   14.78972244  128.03199768    4.90999985    2.67000008
   14.79305553  128.02900696    4.90999985    2.71000004
   14.79888916  128.02900696    4.90999985    1.96000004
   14.80305576   -1.00000000    4.90999985    0.47999999
   14.80611134   -1.00000000    4.90999985    0.34000000
   14.80972195   -1.00000000    4.90999985    0.31999999
   14.81305599   -1.00000000    4.90999985    0.31999999
   14.81611156   -1.00000000    4.90999985    0.30000001
   14.81944466   -1.00000000    4.90999985    0.31999999
   14.82277775   -1.00000000    4.90999985    0.31999999
   14.82583332  177.31399536    4.90999985    1.13000000
   14.82916641  123.51699829    4.90999985    2.40000010
   14.83249950  128.16999817    4.90999985    2.73000002
   14.83555508  124.00499725    4.90999985    2.71000004
   14.84166622  124.00499725    4.90999985    2.69000006
   14.84583282  137.49899292    4.90999985    2.67000008
   14.84916592  131.30099487    4.90999985    2.67000008
   14.85222244  127.46499634    4.90999985    2.67000008
   14.85555553  126.33999634    4.90999985    2.69000006
   14.85888958  128.62699890    4.90999985    2.67000008
   14.86194515  125.84999847    4.90999985    2.67000008
   14.86527824  125.52700043    4.90999985    2.67000008
   14.86833382  126.63700104    4.90999985    2.67000008
   14.87166691  131.85299683    4.90999985    2.67000008
   14.87416649  124.44799805    4.90999985    2.67000008
   14.87527752  119.54000092    4.90999985    2.67000008
   14.87861156  127.79399872    4.90999985    2.69000006
   14.88444424  127.79399872    4.90999985    2.69000006
   14.88861084  126.68399811    4.90999985    2.69000006
   14.89194393  122.88200378    4.90999985    2.71000004
   14.89527798  130.23800659    4.90999985    2.69000006
   14.89833355  127.31300354    4.90999985    2.71000004
   14.90166664  131.15600586    4.90999985    2.71000004
   14.90472221  122.77300262    4.90999985    2.69000006
   14.90805531  124.18000031    4.90999985    2.69000006
   14.90916634  128.03700256    4.90999985    2.69000006
   14.91222191  131.38699341    4.90999985    2.71000004
   14.91555500  122.14399719    4.90999985    2.71000004
   14.91916656  124.48200226    4.90999985    2.71000004
   14.92250061  132.57000732    4.90999985    2.71000004
   14.92750072  132.57000732    4.90999985    2.71000004
   14.93166733  126.80999756    4.90999985    2.71000004
   14.93472195  119.58699799    4.90999985    2.71000004
   14.93805599  123.86599731    4.90999985    2.71000004
   14.94083309  125.93699646    4.90999985    2.71000004
   14.94138908  123.78199768    4.90999985    2.71000004
   14.94472218  121.77799988    4.90999985    2.69000006
   14.94805527  122.02999878    4.90999985    2.69000006
   14.95111084  126.26799774    4.90999985    2.71000004
   14.96333313  122.14499664    0.00000000    0.00000000
   14.96666622  126.25299835    4.90999985    2.71000004
   14.97277737  126.25299835    4.90999985    2.69000006
   14.97694397  121.44699860    4.90999985    2.69000006
   14.97916603  124.84799957    4.90999985    2.69000006
   14.98055553  130.38000488    4.90999985    2.71000004
   14.98388958  119.77799988    4.90999985    2.69000006
   14.98722267  129.38800049    4.90999985    2.69000006
   14.99027824  121.08799744    4.90999985    2.69000006
   14.99361134  127.29100037    4.90999985    2.69000006
   14.99694443  130.63600159    4.90999985    2.69000006
   15.00000000  124.75099945    4.90999985    2.71000004
   15.00333309  130.04100037    4.90999985    2.71000004
   15.00638866  128.13000488    4.90999985    2.71000004
   15.00972176  130.79299927    4.90999985    2.71000004
   15.01583290  130.79299927    4.90999985    2.69000006
   15.01972198  125.50800323    4.90999985    2.71000004
   15.02305508  129.97399902    4.90999985    2.69000006
   15.02638817  122.91999817    4.90999985    2.71000004
   15.02944374  130.57000732    4.90999985    2.71000004
   15.03277779  131.13699341    4.90999985    2.71000004
   15.03583336  123.57399750    4.90999985    2.71000004
   15.03916740  124.08300018    4.90999985    2.71000004
   15.04250050  130.42900085    4.90999985    2.71000004
   15.04555607  127.00199890    4.90999985    2.71000004
   15.04666710  129.58599854    4.90999985    2.71000004
   15.04916668  121.44300079    4.90999985    2.69000006
   15.05249977  125.35800171    4.90999985    2.71000004
   15.05861092  125.35800171    4.90999985    2.69000006
   15.06277752  125.27600098    4.90999985    2.71000004
   15.06583309  127.30500031    4.90999985    2.71000004
   15.06916618  119.67400360    4.90999985    2.69000006
   15.07222176  120.50399780    4.90999985    2.71000004
   15.07555580  120.21199799    4.90999985    2.71000004
   15.07888889  122.47899628    4.90999985    2.71000004
   15.07999992  118.80100250    4.90999985    2.71000004
   15.08222198  125.42800140    4.90999985    2.71000004
   15.08555508  126.10800171    4.90999985    2.73000002
   15.08888817  125.08599854    4.90999985    2.71000004
   15.09194374  118.82099915    4.90999985    2.69000006
   15.09527779  130.07899475    4.90999985    2.71000004
   15.11694431  130.07899475    4.90999985    2.69000006
   15.12111092  124.29299927    4.90999985    2.71000004
   15.12416649  119.53700256    4.90999985    2.69000006
   15.12750053  124.46199799    4.90999985    2.71000004
   15.13083363  123.45200348    4.90999985    2.71000004
   15.13388920  123.12400055    4.90999985    2.69000006
   15.13722229  122.18399811    4.90999985    2.71000004
   15.14055538  115.50399780    4.90999985    2.69000006
   15.14361095  128.48699951    4.90999985    2.69000006
   15.14694405  121.01100159    4.90999985    2.71000004
   15.14777756  124.70800018    4.90999985    2.71000004
   15.15055561  124.69000244    4.90999985    2.69000006
   15.15361118  115.14099884    4.90999985    2.69000006
   15.15972137  115.14099884    4.90999985    2.69000006
   15.16388893  121.49199677    4.90999985    2.69000006
   15.16694450  120.22699738    4.90999985    2.71000004
   15.17027855  117.18599701    4.90999985    2.69000006
   15.17361164  122.75599670    4.90999985    2.69000006
   15.17666721  117.84799957    4.90999985    2.71000004
   15.18000031  121.49800110    4.90999985    2.71000004
   15.18111134  123.49400330    4.90999985    2.71000004
   15.18361092  119.97000122    4.90999985    2.71000004
   15.18666649  119.56400299    4.90999985    2.71000004
   15.19000053  122.67800140    4.90999985    2.71000004
   15.19305515  120.58200073    4.90999985    2.71000004
   15.19638920  121.75900269    4.90999985    2.71000004
   15.20249939  121.75900269    4.90999985    2.71000004
   15.20666695  125.28600311    4.90999985    2.71000004
   15.21000004  123.18699646    4.90999985    2.71000004
   15.21305561  122.03099823    4.90999985    2.69000006
   15.21472168  122.32399750    4.90999985    2.71000004
   15.21666622  116.91100311    4.90999985    2.71000004
   15.21999931  121.59400177    4.90999985    2.71000004
   15.22333336  122.11199951    4.90999985    2.71000004
   15.22638798  124.79100037    4.90999985    2.71000004
   15.22972202  118.76999664    4.90999985    2.71000004
   15.23277760  117.83899689    4.90999985    2.71000004
   15.23611164  117.32700348    4.90999985    2.71000004
   15.23944473  121.15299988    4.90999985    2.73000002
   15.24527836  121.15299988    4.90999985    2.71000004
   15.24944496  139.03300476    4.90999985    2.71000004
   15.25277805  122.30899811    4.90999985    2.73000002
   15.25611115  130.40199280    4.90999985    2.73000002
   15.25916672  133.73199463    4.90999985    2.73000002
   15.26249981  134.31900024    4.90999985    2.73000002
   15.26555538  133.09199524    4.90999985    2.71000004
   15.26888847  133.63299561    4.90999985    2.73000002
   15.27222157  128.84300232    4.90999985    2.71000004
   15.27527714  134.27400208    4.90999985    2.71000004
   15.27861118  123.60500336    4.90999985    2.73000002
   15.28138828  124.08799744    4.90999985    2.73000002
   15.28222179  119.56099701    4.90999985    2.73000002
   15.28833389  119.56099701    4.90999985    2.73000002
   15.29222298  129.24000549    4.90999985    2.73000002
   15.29555607  123.79199982    4.90999985    2.73000002
   15.29888916  128.92799377    4.90999985    2.73000002
   15.30194473  124.62999725    4.90999985    2.73000002
   15.30527782  124.81199646    4.90999985    2.73000002
   15.30861092  127.14600372    4.90999985    2.71000004
   15.31166649  122.71399689    4.90999985    2.73000002
   15.31472206  122.34799957    4.90999985    2.73000002
   15.31527805  121.26300049    4.90999985    2.73000002
   15.31861115  121.97100067    4.90999985    2.73000002
   15.32194424  123.94000244    4.90999985    2.73000002
   15.32499981  124.17900085    4.90999985    2.75000000
   15.33111095  124.17900085    4.90999985    2.73000002
   15.33527756  114.88899994    4.90999985    2.73000002
   15.33833313  118.14700317    4.90999985    2.73000002
   15.34166622  116.50499725    4.90999985    2.73000002
   15.34499931  114.47799683    4.90999985    2.71000004
   15.34805489  123.90399933    4.90999985    2.73000002
   15.34833336  129.18800354    4.90999985    2.73000002
   15.35166740  125.59500122    4.90999985    2.73000002
   15.35500050  126.15799713    4.90999985    2.73000002
   15.35805607  123.29599762    4.90999985    2.73000002
   15.36138916  124.89499664    4.90999985    2.73000002
   15.36444473  124.12799835    4.90999985    2.71000004
   15.36777782  122.26399994    4.90999985    2.71000004
   15.37388897  122.26399994    4.90999985    2.73000002
   15.37805557  127.15599823    4.90999985    2.73000002
   15.38138866  121.05100250    4.90999985    2.73000002
   15.38166714  125.21299744    4.90999985    2.73000002
   15.38500023  132.73300171    4.90999985    2.73000002
   15.38833332  125.56700134    4.90999985    2.73000002
   15.39138889  130.42399597    4.90999985    2.73000002
   15.39472198  128.19299316    4.90999985    2.73000002
   15.39777756  122.56700134    4.90999985    2.73000002
   15.40111065  119.56600189    4.90999985    2.71000004
   15.40444374  115.73200226    4.90999985    2.73000002
   15.40749931  119.48300171    4.90999985    2.73000002
   15.41083336  119.92800140    4.90999985    2.73000002
   15.41666698  119.92800140    4.90999985    2.73000002
   15.42083359  123.67600250    4.90999985    2.73000002
   15.42416668  121.13500214    4.90999985    2.73000002
   15.42750072  127.70999908    4.90999985    2.73000002
   15.43055630  119.34300232    4.90999985    2.73000002
   15.43388939  119.11100006    4.90999985    2.73000002
   15.43694496  118.88200378    4.90999985    2.73000002
   15.44027805  123.16100311    4.90999985    2.73000002
   15.44361115  117.16400146    4.90999985    2.73000002
   15.44666672  120.51399994    4.90999985    2.73000002
   15.44805527  126.27799988    4.90999985    2.73000002
   15.45027733  121.05300140    4.90999985    2.73000002
   15.45361137  123.04799652    4.90999985    2.73000002
   15.45972157  123.04799652    4.90999985    2.73000002
   15.46361065  122.10500336    4.90999985    2.73000002
   15.46694374  121.12599945    4.90999985    2.73000002
   15.47027779  125.88899994    4.90999985    2.73000002
   15.47333336  121.98600006    4.90999985    2.73000002
   15.47666645  123.23300171    4.90999985    2.73000002
   15.47999954  122.91799927    4.90999985    2.73000002
   15.48138809  124.08100128    4.90999985    2.73000002
   15.48333359  122.59700012    4.90999985    2.73000002
   15.48666668  122.46700287    4.90999985    2.73000002
   15.49000072  117.23300171    4.90999985    2.73000002
   15.49305534  122.53700256    4.90999985    2.73000002
   15.49638939  120.10500336    4.90999985    2.73000002
   15.50249958  120.10500336    4.90999985    2.73000002
   15.50666714  126.30699921    4.90999985    2.73000002
   15.50972176  120.34100342    4.90999985    2.73000002
   15.51305580  120.24099731    4.90999985    2.71000004
   15.51500034  120.63200378    4.90999985    2.73000002
   15.51666641  117.63899994    4.90999985    2.73000002
   15.51999950  121.74600220    4.90999985    2.73000002
   15.52305508  118.71600342    4.90999985    2.73000002
   15.52638817  114.49700165    4.90999985    2.73000002
   15.52972221  120.83200073    4.90999985    2.73000002
   15.53277779  118.37100220    4.90999985    2.73000002
   15.53611183  121.27200317    4.90999985    2.75000000
   15.53944492  122.70600128    4.90999985    2.73000002
   15.54527855  122.70600128    4.90999985    2.75000000
   15.54944515  120.41500092    4.90999985    2.73000002
   15.55277824  118.33799744    4.90999985    2.73000002
   15.55583382  120.60399628    4.90999985    2.73000002
   15.55916691  117.22899628    4.90999985    2.73000002
   15.56222248  118.08499908    4.90999985    2.73000002
   15.56555557  119.80999756    4.90999985    2.75000000
   15.56888866  123.86100006    4.90999985    2.73000002
   15.57194424  120.20700073    4.90999985    2.75000000
   15.57527733  123.81800079    4.90999985    2.73000002
   15.57861137  122.64499664    4.90999985    2.75000000
   15.58166695  120.99299622    4.90999985    2.75000000
   15.58194447  114.62899780    4.90999985    2.73000002
   15.58805561  114.62899780    4.90999985    2.75000000
   15.59222221  117.71299744    4.90999985    2.75000000
   15.59555531  118.11499786    4.90999985    2.75000000
   15.59861088  120.83100128    4.90999985    2.75000000
   15.60194492  108.26200104    4.90999985    2.75000000
   15.60527802  117.92199707    4.90999985    2.75000000
   15.60833359  114.66400146    4.90999985    2.75000000
   15.61166668  124.69799805    4.90999985    2.75000000
   15.61500072  122.78500366    4.90999985    2.75000000
   15.61527824  115.45700073    4.90999985    2.75000000
   15.61861134  126.37799835    4.90999985    2.75000000
   15.62166691  118.15200043    4.90999985    2.75000000
   15.62500000  125.04699707    4.90999985    2.75000000
   15.63111115  125.04699707    4.90999985    2.75000000
   15.63500023  118.47299957    4.90999985    2.75000000
   15.63833332  130.94999695    4.90999985    2.75000000
   15.64166641  117.48699951    4.90999985    2.75000000
   15.64472198  121.83200073    4.90999985    2.75000000
   15.64805508  119.55500031    4.90999985    2.75000000
   15.64861107  118.00399780    4.90999985    2.75000000
   15.65166664  122.83100128    4.90999985    2.75000000
   15.65499973  124.12899780    4.90999985    2.75000000
   15.65833282  133.41400146    4.90999985    2.73000002
   15.66138840  116.99800110    4.90999985    2.75000000
   15.66472149  119.53199768    4.90999985    2.75000000
   15.66805553  120.38200378    4.90999985    2.75000000
   15.67388916  120.38200378    4.90999985    2.73000002
   15.67805576  117.82199860    4.90999985    2.75000000
   15.68111134  120.11699677    4.90999985    2.75000000
   15.68194485  120.76599884    4.90999985    2.75000000
   15.68500042  125.13099670    4.90999985    2.75000000
   15.68805599  119.58200073    4.90999985    2.75000000
   15.69138908  121.19100189    4.90999985    2.75000000
   15.69444466  110.85800171    4.90999985    2.75000000
   15.69777775  120.03099823    4.90999985    2.75000000
   15.70111084  128.37899780    4.90999985    2.75000000
   15.70416641  126.56400299    4.90999985    2.75000000
   15.70749950  122.33799744    4.90999985    2.75000000
   15.71083355  124.05699921    4.90999985    2.73000002
   15.71666622  124.05699921    4.90999985    2.75000000
   15.72083282  118.88700104    4.90999985    2.75000000
   15.72416592  129.72099304    4.90999985    2.75000000
   15.72722149  117.47200012    4.90999985    2.75000000
   15.73055553  124.25399780    4.90999985    2.75000000
   15.73388958  128.44999695    4.90999985    2.75000000
   15.73694515  118.95899963    4.90999985    2.75000000
   15.74027824  124.57900238    4.90999985    2.75000000
   15.74361134  109.83300018    4.90999985    2.75000000
   15.74666691  120.49299622    4.90999985    2.75000000
   15.74861145  125.96299744    4.90999985    2.75000000
   15.75055599  113.48799896    4.90999985    2.75000000
   15.75361156  126.77200317    4.90999985    2.75000000
   15.75944424  126.77200317    4.90999985    2.75000000
   15.76361084  125.83100128    4.90999985    2.75000000
   15.76694393  131.77999878    4.90999985    2.75000000
   15.76999950  115.17299652    4.90999985    2.75000000
   15.77333355  125.41899872    4.90999985    2.75000000
   15.77666664  118.54199982    4.90999985    2.75000000
   15.77972221  125.65000153    4.90999985    2.75000000
   15.78194427  131.64399719    4.90999985    2.75000000
   15.78361130  126.00599670    4.90999985    2.75000000
   15.78666687  120.27799988    4.90999985    2.75000000
   15.79000092  120.55999756    4.90999985    2.75000000
   15.79305553  119.97000122    4.90999985    2.75000000
   15.79638958  138.36500549    4.90999985    2.75000000
   15.80249977  138.36500549    4.90999985    2.75000000
   15.80638885  130.18699646    4.90999985    2.75000000
   15.80972195  136.09899902    4.90999985    2.75000000
   15.81305599  120.83799744    4.90999985    2.75000000
   15.81527805  132.70500183    4.90999985    2.75000000
   15.81666660  144.99699402    4.90999985    2.75000000
   15.81972218  133.03700256    4.90999985    2.75000000
   15.82305527  124.32499695    4.90999985    2.75000000
   15.82638836  124.20600128    4.90999985    2.75000000
   15.82944393  138.27499390    4.90999985    2.75000000
   15.83277798  128.94799805    4.90999985    2.76999998
   15.83583260  115.69699860    4.90999985    2.75000000
   15.83916664  127.01300049    4.90999985    2.75000000
   15.84527779  127.01300049    4.90999985    2.75000000
   15.84944439  130.74400330    4.90999985    2.75000000
   15.85249996  127.12000275    4.90999985    2.75000000
   15.85583401  132.11399841    4.90999985    2.75000000
   15.85916710  130.73300171    4.90999985    2.75000000
   15.86222267  131.91499329    4.90999985    2.73000002
   15.86555576  128.03500366    4.90999985    2.75000000
   15.86861134  139.86199951    4.90999985    2.75000000
   15.87194443  135.95700073    4.90999985    2.75000000
   15.87583351  123.81400299    4.90999985    2.73000002
   15.87888908  137.52900696    4.90999985    2.75000000
   15.88194466  127.31199646    4.90999985    2.75000000
   15.88277817  139.87800598    4.90999985    2.75000000
   15.88861084  139.87800598    4.90999985    2.75000000
   15.89249992  134.13600159    4.90999985    2.75000000
   15.89583302  131.46000671    4.90999985    2.75000000
   15.89916611  134.59300232    4.90999985    2.75000000
   15.90222168  136.37100220    4.90999985    2.75000000
   15.90555477  129.52999878    4.90999985    2.75000000
   15.90861034  142.76800537    4.90999985    2.75000000
   15.91194439  135.82600403    4.90999985    2.75000000
   16.01388931   -1.00000000   -1.00000000   -1.00000000
   16.11027908   -1.00000000   -1.00000000   -1.00000000
   16.13833237  129.81500244    4.90999985    2.75000000
   16.14166641  135.36300659    4.90999985    2.75000000
   16.14472198  129.39100647    4.90999985    2.75000000
   16.14805603  125.94999695    4.90999985    2.75000000
   16.15138817  144.91200256    4.90999985    2.76999998
   16.15444374  125.74099731    4.90999985    2.75000000
   16.15861130  125.74099731    4.90999985    2.75000000
   16.16277695  143.62199402    4.90999985    2.76999998
   16.16611099  131.07200623    4.90999985    2.75000000
   16.16916656  147.28500366    4.90999985    2.75000000
   16.17166519  134.34399414    4.90999985    2.75000000
   16.17305565  134.28700256    4.90999985    2.75000000
   16.17611122  141.25000000    4.90999985    2.75000000
   16.17944336  124.14800262    4.90999985    2.75000000
   16.18277740  136.62199402    4.90999985    2.75000000
   16.18583298  131.61500549    4.90999985    2.75000000
   16.18916512  132.57600403    4.90999985    2.75000000
   16.19222069  132.04600525    4.90999985    2.75000000
   16.19555473  128.08700562    4.90999985    2.75000000
   16.20138931  128.08700562    4.90999985    2.75000000
   16.20555687  129.17100525    4.90999985    2.75000000
   16.20888901  137.52900696    4.90999985    2.75000000
   16.21194458  128.70599365    4.90999985    2.75000000
   16.21527863  130.17199707    4.90999985    2.75000000
   16.21861076  133.80200195    4.90999985    2.75000000
   16.22166634  133.06500244    4.90999985    2.75000000
   16.22500038  137.09100342    4.90999985    2.75000000
   16.22833443  137.45700073    4.90999985    2.76999998
   16.23139000  130.94999695    4.90999985    2.75000000
   16.23472214  137.36199951    4.90999985    2.75000000
   16.23777771  135.26499939    4.90999985    2.75000000
   16.23833275  124.05599976    4.90999985    2.75000000
   16.24444389  124.05599976    4.90999985    2.75000000
   16.24833298  137.55900574    4.90999985    2.75000000
   16.25166702  126.64499664    4.90999985    2.75000000
   16.25499916  126.12699890    4.90999985    2.75000000
   16.25805473  124.41400146    4.90999985    2.75000000
   16.26138878  122.75800323    4.90999985    2.75000000
   16.26472282  122.06199646    4.90999985    2.75000000
   16.26777840  123.85099792    4.90999985    2.75000000
   16.27111053  126.98600006    4.90999985    2.75000000
   16.27166557  116.21499634    4.90999985    2.75000000
   16.27472115  123.02899933    4.90999985    2.76999998
   16.27805519  129.88499451    4.90999985    2.75000000
   16.28111076  134.34199524    4.90999985    2.75000000
   16.28722191  134.34199524    4.90999985    2.75000000
   16.29138756  119.94999695    4.90999985    2.75000000
   16.29444313  121.76999664    4.90999985    2.75000000
   16.29777718  121.76200104    4.90999985    2.75000000
   16.30111122  120.74099731    4.90999985    2.76999998
   16.30416679  128.51100159    4.90999985    2.75000000
   16.30499840  123.00700378    4.90999985    2.75000000
   16.30777740  132.14100647    4.90999985    2.75000000
   16.31110954  119.13400269    4.90999985    2.75000000
   16.31416512  122.94300079    4.90999985    2.75000000
   16.31750107  120.92900085    4.90999985    2.75000000
   16.32083511  118.70099640    4.90999985    2.75000000
   16.32389069  123.46499634    4.90999985    2.75000000
   16.33000183  123.46499634    4.90999985    2.75000000
   16.33416748  126.00700378    4.90999985    2.75000000
   16.33750153  130.40899658    4.90999985    2.75000000
   16.33833313  121.96299744    4.90999985    2.75000000
   16.34111214  120.73999786    4.90999985    2.75000000
   16.34444427  123.17600250    4.90999985    2.75000000
   16.34749985  125.02400208    4.90999985    2.76999998
   16.35083389  128.46000671    4.90999985    2.76999998
   16.35416794  119.18499756    4.90999985    2.75000000
   16.35722351  126.21900177    4.90999985    2.76999998
   16.36055565  124.43800354    4.90999985    2.75000000
   16.36361122  127.85700226    4.90999985    2.75000000
   16.36694527  125.05500031    4.90999985    2.75000000
   16.37277794  125.05500031    4.90999985    2.75000000
   16.37694550  135.13299561    4.90999985    2.75000000
   16.38027763  129.80799866    4.90999985    2.75000000
   16.38333321  124.22699738    4.90999985    2.75000000
   16.38666725  119.83999634    4.90999985    2.75000000
   16.38999939  124.34999847    4.90999985    2.75000000
   16.39305496  120.23799896    4.90999985    2.75000000
   16.39638901  121.57599640    4.90999985    2.75000000
   16.39972115  132.88000488    4.90999985    2.76999998
   16.41222191  126.27100372    0.00000000    0.00000000
   16.41277695  127.37400055    4.90999985    2.75000000
   16.41583252  127.27799988    4.90999985    2.75000000
   16.42166519  127.27799988    4.90999985    2.76999998
   16.42583275  123.73699951    4.90999985    2.75000000
   16.42888832  127.70300293    4.90999985    2.76999998
   16.43222237  124.77100372    4.90999985    2.76999998
   16.43555450  122.46199799    4.90999985    2.76999998
   16.43861008  125.50000000    4.90999985    2.75000000
   16.44194412  127.83499908    4.90999985    2.75000000
   16.44527626  128.38299561    4.90999985    2.75000000
   16.44610977  132.60000610    4.90999985    2.76999998
   16.44888878  130.76499939    4.90999985    2.76999998
   16.45194435  130.48899841    4.90999985    2.75000000
   16.45527840  127.63500214    4.90999985    2.75000000
   16.45861244  132.80700684    4.90999985    2.76999998
   16.46444511  132.80700684    4.90999985    2.76999998
   16.46861076  135.56700134    4.90999985    2.75000000
   16.47194481  123.06400299    4.90999985    2.76999998
   16.47500038  118.27500153    4.90999985    2.76999998
   16.47833443  123.71399689    4.90999985    2.76999998
   16.47944450  132.26899719    4.90999985    2.75000000
   16.48194504  131.66700745    4.90999985    2.75000000
   16.48500061  122.23000336    4.90999985    2.76999998
   16.48833275  123.46800232    4.90999985    2.75000000
   16.49166679  124.83599854    4.90999985    2.75000000
   16.49500084  119.94400024    4.90999985    2.76999998
   16.49805641  120.70899963    4.90999985    2.75000000
   16.50138855  116.25399780    4.90999985    2.76999998
   16.50749969  116.25399780    4.90999985    2.75000000
   16.51138878  121.30400085    4.90999985    2.75000000
   16.51277733  117.97899628    4.90999985    2.76999998
   16.51527786  116.80899811    4.90999985    2.75000000
   16.51833344  132.25900269    4.90999985    2.75000000
   16.52166557  123.28299713    4.90999985    2.75000000
   16.52499962  127.28299713    4.90999985    2.76999998
   16.52805519  133.40899658    4.90999985    2.75000000
   16.53138924  121.96499634    4.90999985    2.76999998
   16.53444481  125.68199921    4.90999985    2.76999998
   16.53777695  123.99199677    4.90999985    2.76999998
   16.54111099  126.99299622    4.90999985    2.75000000
   16.54416656  125.64600372    4.90999985    2.76999998
   16.54611015  121.84100342    4.90999985    2.76999998
   16.55027771  121.84100342    4.90999985    2.76999998
   16.55444336  124.97200012    4.90999985    2.75000000
   16.55777740  126.70899963    4.90999985    2.75000000
   16.56083298  127.27999878    4.90999985    2.76999998
   16.56416512  126.97499847    4.90999985    2.75000000
   16.56722260  126.76799774    4.90999985    2.75000000
   16.57055664  124.42700195    4.90999985    2.75000000
   16.57389069  127.63899994    4.90999985    2.75000000
   16.57694626  126.50599670    4.90999985    2.75000000
   16.57944489  124.47599792    4.90999985    2.75000000
   16.58083344  124.62999725    4.90999985    2.76999998
   16.58388901  122.65799713    4.90999985    2.75000000
   16.58722305  123.38600159    4.90999985    2.76999998
   16.59333420  123.38600159    4.90999985    2.76999998
   16.59749985  125.84100342    4.90999985    2.76999998
   16.60055542  125.11499786    4.90999985    2.76999998
   16.60388947  122.64700317    4.90999985    2.75000000
   16.60722351  118.81199646    4.90999985    2.75000000
   16.61027908  124.46700287    4.90999985    2.75000000
   16.61277771  122.44100189    4.90999985    2.76999998
   16.61416626  125.01499939    4.90999985    2.76999998
   16.61722183  120.27200317    4.90999985    2.76999998
   16.62055588  128.55000305    4.90999985    2.76999998
   16.62388992  126.77500153    4.90999985    2.75000000
   16.62694550  133.88299561    4.90999985    2.76999998
   16.63027763  122.47299957    4.90999985    2.76999998
   16.63611031  122.47299957    4.90999985    2.76999998
   16.63999939  122.83200073    4.90999985    2.76999998
   16.64333344  129.55999756    4.90999985    2.75000000
   16.64611053  131.31500244    4.90999985    2.76999998
   16.64694405  127.11900330    4.90999985    2.76999998
   16.64999962  138.69999695    4.90999985    2.76999998
   16.65333366  123.36699677    4.90999985    2.76999998
   16.65666580  130.21299744    4.90999985    2.76999998
   16.65972137  126.18299866    4.90999985    2.76999998
   16.66305542  125.78700256    4.90999985    2.75000000
   16.66638756  127.66200256    4.90999985    2.76999998
   16.66944313  128.14700317    4.90999985    2.76999998
   16.67277718  129.84300232    4.90999985    2.76999998
   16.67888832  129.84300232    4.90999985    2.76999998
   16.68305397  129.81500244    4.90999985    2.75000000
   16.68610954  131.41099548    4.90999985    2.76999998
   16.68944359  133.33299255    4.90999985    2.76999998
   16.69277763  127.29599762    4.90999985    2.76999998
   16.69583321  129.10200500    4.90999985    2.76999998
   16.69916534  128.35899353    4.90999985    2.76999998
   16.70222282  128.23599243    4.90999985    2.76999998
   16.70555687  125.21499634    4.90999985    2.75000000
   16.70888901  118.96800232    4.90999985    2.76999998
   16.71194458  125.20800018    4.90999985    2.76999998
   16.71389008  126.46199799    4.90999985    2.75000000
   16.71583366  125.28099823    4.90999985    2.75000000
   16.72166634  125.28099823    4.90999985    2.76999998
   16.72583389  125.77700043    4.90999985    2.76999998
   16.72888947  128.33799744    4.90999985    2.76999998
   16.73222351  126.72899628    4.90999985    2.75000000
   16.73555565  132.05299377    4.90999985    2.76999998
   16.73861122  131.67199707    4.90999985    2.75000000
   16.74194527  128.56500244    4.90999985    2.76999998
   16.74527740  133.99499512    4.90999985    2.76999998
   16.74722290  123.50800323    4.90999985    2.75000000
   16.74888992  134.43899536    4.90999985    2.76999998
   16.75194359  129.48599243    4.90999985    2.76999998
   16.75527763  133.33500671    4.90999985    2.76999998
   16.75833321  133.43800354    4.90999985    2.76999998
   16.76444435  133.43800354    4.90999985    2.76999998
   16.76861000  117.17500305    4.90999985    2.76999998
   16.77194405  119.29499817    4.90999985    2.76999998
   16.77499962  127.65000153    4.90999985    2.76999998
   16.77833366  126.62500000    4.90999985    2.76999998
   16.78083229  128.80999756    4.90999985    2.76999998
   16.78194427  126.55799866    4.90999985    2.76999998
   16.78527641  132.21200562    4.90999985    2.78999996
   16.78861046  129.07600403    4.90999985    2.76999998
   16.79166603  124.25000000    4.90999985    2.76999998
   16.79500008  124.63200378    4.90999985    2.78999996
   16.79805565  132.07000732    4.90999985    2.78999996
   16.80138779  127.70899963    4.90999985    2.78999996
   16.80722237  127.70899963    4.90999985    2.76999998
   16.81138802  130.97399902    4.90999985    2.76999998
   16.81416512  118.30999756    4.90999985    2.78999996
   16.81499863  125.42500305    4.90999985    2.76999998
   16.81833458  124.28099823    4.90999985    2.78999996
   16.82166672  124.50800323    4.90999985    2.76999998
   16.82472229  126.47100067    4.90999985    2.76999998
   16.82805634  124.65699768    4.90999985    2.76999998
   16.83111191  130.85800171    4.90999985    2.76999998
   16.83444595  123.72299957    4.90999985    2.78999996
   16.83777809  125.97000122    4.90999985    2.78999996
   16.84083366  120.14900208    4.90999985    2.76999998
   16.84416771  122.90299988    4.90999985    2.76999998
   16.85027885  122.90299988    4.90999985    2.76999998
   16.85444450  126.68299866    4.90999985    2.76999998
   16.85750008  125.92299652    4.90999985    2.76999998
   16.86083412  123.21399689    4.90999985    2.76999998
   16.86388969  129.13699341    4.90999985    2.76999998
   16.86722183  123.12400055    4.90999985    2.76999998
   16.87055588  122.16400146    4.90999985    2.78999996
   16.87361145  128.69400024    4.90999985    2.76999998
   16.87694550  121.37400055    4.90999985    2.76999998
   16.88027763  128.09100342    4.90999985    2.76999998
   16.88111115  128.28199768    4.90999985    2.76999998
   16.88388824  131.16400146    4.90999985    2.76999998
   16.88694382  125.80799866    4.90999985    2.76999998
   16.89305496  125.80799866    4.90999985    2.76999998
   16.89722252  134.11599731    4.90999985    2.76999998
   16.90027809  121.73799896    4.90999985    2.76999998
   16.90361023  127.58999634    4.90999985    2.76999998
   16.90694427  135.05000305    4.90999985    2.78999996
   16.90999985  123.30699921    4.90999985    2.76999998
   16.91333389  124.84700012    4.90999985    2.76999998
   16.91444397  123.63600159    4.90999985    2.76999998
   16.91694450  125.98400116    4.90999985    2.76999998
   16.92000008  122.32599640    4.90999985    2.76999998
   16.92333221  126.50499725    4.90999985    2.76999998
   16.92666626  118.06900024    4.90999985    2.76999998
   16.92972183  124.15899658    4.90999985    2.78999996
   16.93583298  124.15899658    4.90999985    2.76999998
   16.94027710  122.31700134    4.90999985    2.76999998
   16.94361115  121.01200104    4.90999985    2.76999998
   16.94666672  117.33200073    4.90999985    2.76999998
   16.94805527  126.23699951    4.90999985    2.75000000
   16.95027924  116.63200378    4.90999985    2.76999998
   16.95361137  119.11799622    4.90999985    2.76999998
   16.95694542  122.34100342    4.90999985    2.76999998
   16.96000099  113.60399628    4.90999985    2.76999998
   16.96333504  121.63899994    4.90999985    2.76999998
   16.96666718  131.56399536    4.90999985    2.76999998
   16.96972275  120.70800018    4.90999985    2.76999998
   16.97305679  123.94400024    4.90999985    2.76999998
   16.97861099  123.94400024    4.90999985    2.76999998
   16.98277855  126.90499878    4.90999985    2.76999998
   16.98611069  128.28900146    4.90999985    2.76999998
   16.98944473  124.84899902    4.90999985    2.76999998
   16.99250031  131.99899292    4.90999985    2.76999998
   16.99583435  126.02400208    4.90999985    2.76999998
   16.99888992  118.73999786    4.90999985    2.76999998
   17.00222206  127.40899658    4.90999985    2.76999998
   17.00555611  132.66600037    4.90999985    2.76999998
   17.00861168  128.96600342    4.90999985    2.76999998
   17.01194382  127.18199921    4.90999985    2.76999998
   17.01472282  123.01100159    4.90999985    2.78999996
   17.01555634  125.22599792    4.90999985    2.78999996
   17.02166557  125.22599792    4.90999985    2.76999998
   17.02583313  127.61699677    4.90999985    2.78999996
   17.02888870  127.62500000    4.90999985    2.76999998
   17.03222275  128.66499329    4.90999985    2.76999998
   17.03527641  126.16699982    4.90999985    2.76999998
   17.03861046  129.73199463    4.90999985    2.76999998
   17.04194450  130.45500183    4.90999985    2.78999996
   17.04500008  125.26999664    4.90999985    2.76999998
   17.04805565  118.56900024    4.90999985    2.78999996
   17.04861069  129.15800476    4.90999985    2.76999998
   17.05194283  120.53099823    4.90999985    2.76999998
   17.05527687  134.27600098    4.90999985    2.76999998
   17.05833244  124.20800018    4.90999985    2.76999998
   17.06444359  124.20800018    4.90999985    2.76999998
   17.06861115  125.66799927    4.90999985    2.76999998
   17.17694473   -1.00000000   -1.00000000   -1.00000000
   17.21194458   80.16190338    4.90999985    2.75000000
   17.21500015  127.09200287    4.90999985    2.76999998
   17.21833420  129.55900574    4.90999985    2.75000000
   17.22166634  124.97799683    4.90999985    2.75000000
   17.22472191  132.96600342    4.90999985    2.76999998
   17.22805595  132.71699524    4.90999985    2.76999998
   17.23222351  132.71699524    4.90999985    2.76999998
   17.23638916  134.03599548    4.90999985    2.76999998
   17.23972321  129.48199463    4.90999985    2.76999998
   17.24277878  130.22399902    4.90999985    2.76999998
   17.24527740  128.98399353    4.90999985    2.76999998
   17.24666786  131.75500488    4.90999985    2.76999998
   17.24972153  131.21499634    4.90999985    2.76999998
   17.25305557  126.83599854    4.90999985    2.76999998
   17.25638962  136.63600159    4.90999985    2.75000000
   17.25944519  114.04299927    4.90999985    2.76999998
   17.26277733  126.31300354    4.90999985    2.75000000
   17.26611137  124.04499817    4.90999985    2.76999998
   17.26916695  128.89999390    4.90999985    2.76999998
   17.27527809  128.89999390    4.90999985    2.76999998
   17.27916718  131.23699951    4.90999985    2.76999998
   17.28249931  127.74099731    4.90999985    2.76999998
   17.28583336  128.54699707    4.90999985    2.76999998
   17.28888893  128.57800293    4.90999985    2.76999998
   17.29222107  128.89999390    4.90999985    2.75000000
   17.29527664  121.91300201    4.90999985    2.76999998
   17.29861069  127.91699982    4.90999985    2.75000000
   17.30194283  124.63400269    4.90999985    2.76999998
   17.30499840  127.20899963    4.90999985    2.76999998
   17.30833244  131.77499390    4.90999985    2.76999998
   17.31166649  136.45700073    4.90999985    2.75000000
   17.31222153  130.50300598    4.90999985    2.75000000
   17.31805611  130.50300598    4.90999985    2.76999998
   17.32194519  127.50700378    4.90999985    2.76999998
   17.32527924  127.05599976    4.90999985    2.75000000
   17.32861137  133.39199829    4.90999985    2.76999998
   17.33166695  128.66299438    4.90999985    2.75000000
   17.33500099  127.50900269    4.90999985    2.76999998
   17.33833313  127.66100311    4.90999985    2.76999998
   17.34138870  126.39700317    4.90999985    2.76999998
   17.34472275  126.90299988    4.90999985    2.78999996
   17.34527779  132.55700684    4.90999985    2.76999998
   17.34833336  131.13900757    4.90999985    2.76999998
   17.35166740  126.83699799    4.90999985    2.76999998
   17.35472298  123.92199707    4.90999985    2.76999998
   17.36083412  123.92199707    4.90999985    2.76999998
   17.36499977  120.02799988    4.90999985    2.76999998
   17.36805534  118.89299774    4.90999985    2.76999998
   17.37138939  124.89299774    4.90999985    2.78999996
   17.37472153  127.87200165    4.90999985    2.76999998
   17.37777710  128.90299988    4.90999985    2.76999998
   17.37861061  136.53700256    4.90999985    2.76999998
   17.38138962  126.25499725    4.90999985    2.76999998
   17.38472176  128.84700012    4.90999985    2.76999998
   17.38777733  131.82800293    4.90999985    2.76999998
   17.39111137  126.86699677    4.90999985    2.76999998
   17.39444351  119.09600067    4.90999985    2.75000000
   17.39749908  122.57700348    4.90999985    2.76999998
   17.40361023  122.57700348    4.90999985    2.76999998
   17.40777779  124.60900116    4.90999985    2.76999998
   17.41138840  126.36399841    4.90999985    2.75000000
   17.41194344  123.67199707    4.90999985    2.78999996
   17.41499901  127.19100189    4.90999985    2.78999996
   17.41833305  125.54399872    4.90999985    2.76999998
   17.42138863  130.33999634    4.90999985    2.76999998
   17.42472076  126.90200043    4.90999985    2.75000000
   17.42805481  130.27699280    4.90999985    2.75000000
   17.43111038  119.56199646    4.90999985    2.76999998
   17.43444443  131.72999573    4.90999985    2.76999998
   17.43777657  127.20500183    4.90999985    2.76999998
   17.44083214  124.54599762    4.90999985    2.76999998
   17.44722176  124.54599762    4.90999985    2.76999998
   17.45138931  125.18900299    4.90999985    2.75000000
   17.45472336  128.43400574    4.90999985    2.75000000
   17.45777893  126.25099945    4.90999985    2.76999998
   17.46111107  124.95600128    4.90999985    2.75000000
   17.46444511  124.94000244    4.90999985    2.76999998
   17.46750069  130.00900269    4.90999985    2.76999998
   17.47083473  120.00599670    4.90999985    2.76999998
   17.47416687  127.93800354    4.90999985    2.75000000
   17.47722244  124.20300293    4.90999985    2.75000000
   17.47861099  129.61700439    4.90999985    2.75000000
   17.48083305  126.66699982    4.90999985    2.76999998
   17.48416710  121.83499908    4.90999985    2.76999998
   17.48944473  121.83499908    4.90999985    2.76999998
   17.49333382  118.44599915    4.90999985    2.76999998
   17.49666786  122.44200134    4.90999985    2.76999998
   17.50000000  120.21099854    4.90999985    2.76999998
   17.50305557  128.73199463    4.90999985    2.76999998
   17.50638962  124.34799957    4.90999985    2.76999998
   17.50972176  122.95200348    4.90999985    2.76999998
   17.51194382  121.65599823    4.90999985    2.76999998
   17.51333427  114.02100372    4.90999985    2.76999998
   17.51666641  121.64099884    4.90999985    2.75000000
   17.51972198  120.67900085    4.90999985    2.76999998
   17.52305603  119.73300171    4.90999985    2.76999998
   17.52638817  118.87300110    4.90999985    2.76999998
   17.54138756  118.87300110    4.90999985    2.76999998
   17.54555511  126.42800140    4.90999985    2.75000000
   17.54888916  119.58000183    4.90999985    2.76999998
   17.55194283  115.41500092    4.90999985    2.76999998
   17.55527687  123.37200165    4.90999985    2.76999998
   17.55833244  119.01599884    4.90999985    2.76999998
   17.56166649  121.08399963    4.90999985    2.76999998
   17.56499863  127.43699646    4.90999985    2.76999998
   17.56833458  130.47700500    4.90999985    2.76999998
   17.57500076  130.47700500    4.90999985    2.76999998
   17.57916832  126.75599670    4.90999985    2.76999998
   17.58250046  132.17300415    4.90999985    2.76999998
   17.58555603  126.74500275    4.90999985    2.76999998
   17.58889008  128.13200378    4.90999985    2.76999998
   17.59222221  124.92099762    4.90999985    2.75000000
   17.59527779  120.93099976    4.90999985    2.76999998
   17.59861183  120.08599854    4.90999985    2.76999998
   17.60166740  125.78700256    4.90999985    2.76999998
   17.60499954  125.58799744    4.90999985    2.76999998
   17.60833359  125.07700348    4.90999985    2.76999998
   17.61138916  122.41999817    4.90999985    2.76999998
   17.61222267  129.21200562    4.90999985    2.76999998
   17.61777878  129.21200562    4.90999985    2.76999998
   17.62194443  119.41100311    4.90999985    2.76999998
   17.62527847  122.61000061    4.90999985    2.76999998
   17.62861061  117.22200012    4.90999985    2.76999998
   17.63166618  118.75299835    4.90999985    2.75000000
   17.63500023  126.01000214    4.90999985    2.75000000
   17.63805580  116.36199951    4.90999985    2.76999998
   17.64138794  129.16099548    4.90999985    2.75000000
   17.64472198  122.75000000    4.90999985    2.76999998
   17.64555550  127.37599945    4.90999985    2.76999998
   17.64805603  128.23199463    4.90999985    2.76999998
   17.65138817  124.65399933    4.90999985    2.75000000
   17.65472221  130.58299255    4.90999985    2.76999998
   17.66083336  130.58299255    4.90999985    2.75000000
   17.66499901  124.37200165    4.90999985    2.76999998
   17.66805458  126.95300293    4.90999985    2.75000000
   17.67138863  119.72799683    4.90999985    2.75000000
   17.67444420  126.71099854    4.90999985    2.76999998
   17.67777634  122.19400024    4.90999985    2.76999998
   17.67888832  121.47899628    4.90999985    2.76999998
   17.68138885  119.74900055    4.90999985    2.76999998
   17.68472099  120.54499817    4.90999985    2.76999998
   17.68805504  122.91200256    4.90999985    2.76999998
   17.69111061  117.05500031    4.90999985    2.76999998
   17.69444275  117.92299652    4.90999985    2.78999996
   17.69749832  121.12400055    4.90999985    2.76999998
   17.70361137  121.12400055    4.90999985    2.76999998
   17.70777893  123.06300354    4.90999985    2.76999998
   17.71083450  110.66400146    4.90999985    2.76999998
   17.71222305  114.59200287    4.90999985    2.76999998
   17.71444511  113.21199799    4.90999985    2.76999998
   17.71777916  114.33200073    4.90999985    2.76999998
   17.72111130  120.14499664    4.90999985    2.76999998
   17.72416687  120.73899841    4.90999985    2.76999998
   17.72750092  119.73600006    4.90999985    2.76999998
   17.73055649  116.90000153    4.90999985    2.76999998
   17.73388863  114.22799683    4.90999985    2.76999998
   17.73722267  115.79799652    4.90999985    2.75000000
   17.74027824  120.04299927    4.90999985    2.78999996
   17.74638939  120.04299927    4.90999985    2.76999998
   17.75055504  116.68000031    4.90999985    2.76999998
   17.75388908  117.94000244    4.90999985    2.75000000
   17.75694466  116.73799896    4.90999985    2.75000000
   17.76027870  115.51999664    4.90999985    2.76999998
   17.76361084  118.07299805    4.90999985    2.76999998
   17.76666641  117.61900330    4.90999985    2.76999998
   17.77000046  114.69799805    4.90999985    2.76999998
   17.77305603  119.62100220    4.90999985    2.76999998
   17.77638817  117.87500000    4.90999985    2.76999998
   17.77888870  116.04599762    4.90999985    2.76999998
   17.78000069  120.61900330    4.90999985    2.76999998
   17.78333282  125.41899872    4.90999985    2.76999998
   17.78916550  125.41899872    4.90999985    2.76999998
   17.79333305  120.83899689    4.90999985    2.78999996
   17.79666710  122.97499847    4.90999985    2.76999998
   17.79999924  125.86499786    4.90999985    2.76999998
   17.80305481  121.08499908    4.90999985    2.76999998
   17.80638885  121.74800110    4.90999985    2.76999998
   17.80944443  126.02700043    4.90999985    2.76999998
   17.81222153  125.91600037    4.90999985    2.76999998
   17.81305504  120.05400085    4.90999985    2.76999998
   17.81638718  123.69999695    4.90999985    2.76999998
   17.81944466  126.53700256    4.90999985    2.76999998
   17.82277870  126.14399719    4.90999985    2.75000000
   17.82611275  124.49900055    4.90999985    2.76999998
   17.83222389  124.49900055    4.90999985    2.75000000
   17.83611107  116.45700073    4.90999985    2.75000000
   17.83944511  125.84500122    4.90999985    2.76999998
   17.84277916  122.92099762    4.90999985    2.78999996
   17.84555626  123.70099640    4.90999985    2.76999998
   17.84638977  121.24299622    4.90999985    2.75000000
   17.84972191  123.04900360    4.90999985    2.75000000
   17.85277748  121.52999878    4.90999985    2.76999998
   17.85611153  124.78199768    4.90999985    2.76999998
   17.85944557  125.72799683    4.90999985    2.76999998
   17.86250114  132.00100708    4.90999985    2.75000000
   17.86583328  122.20800018    4.90999985    2.76999998
   17.86916733  123.47799683    4.90999985    2.76999998
   17.87500000  123.47799683    4.90999985    2.76999998
   17.87916756  117.16300201    4.90999985    2.76999998
   17.88222313  120.21199799    4.90999985    2.75000000
   17.88555527  117.64299774    4.90999985    2.75000000
   17.88888931  126.44799805    4.90999985    2.75000000
   17.89194489  127.05899811    4.90999985    2.76999998
   17.89527702  123.34500122    4.90999985    2.75000000
   17.89861107  115.51200104    4.90999985    2.76999998
   17.90305519  123.99600220    4.90999985    2.75000000
   17.90611076  119.03900146    4.90999985    2.75000000
   17.90944481  123.33399963    4.90999985    2.75000000
   17.91222191  115.83899689    4.90999985    2.76999998
   17.91305542  114.66600037    4.90999985    2.75000000
   17.91777802  114.66600037    4.90999985    2.75000000
   17.92194366  117.12100220    4.90999985    2.76999998
   17.92527771  116.93599701    4.90999985    2.76999998
   17.92833328  117.95200348    4.90999985    2.75000000
   17.93166542  120.46499634    4.90999985    2.75000000
   17.93499947  120.24600220    4.90999985    2.75000000
   17.93805504  113.92800140    4.90999985    2.75000000
   17.94138718  119.36399841    4.90999985    2.75000000
   17.94444275  122.87899780    4.90999985    2.75000000
   17.94555473  116.67099762    4.90999985    2.75000000
   17.94805527  115.69400024    4.90999985    2.76999998
   17.95138931  114.88800049    4.90999985    2.76999998
   17.95472336  120.52300262    4.90999985    2.75000000
   17.96055603  120.52300262    4.90999985    2.75000000
   17.96472359  112.57499695    4.90999985    2.75000000
   17.96805573  116.41600037    4.90999985    2.75000000
   17.97138977  113.03600311    4.90999985    2.75000000
   17.97444534  116.46199799    4.90999985    2.75000000
   17.97777748  115.46299744    4.90999985    2.76999998
   17.97888947  118.21399689    4.90999985    2.75000000
   17.98139000  118.54499817    4.90999985    2.75000000
   17.98444557  116.90399933    4.90999985    2.75000000
   17.98777771  122.59700012    4.90999985    2.76999998
   17.99111176  117.84999847    4.90999985    2.75000000
   17.99416733  120.19100189    4.90999985    2.76999998
   17.99749947  121.48899841    4.90999985    2.75000000
   18.00361061  121.48899841    4.90999985    2.75000000
   18.00777817  121.84300232    4.90999985    2.76999998
   18.01083374  117.41999817    4.90999985    2.76999998
   18.01222229  121.99199677    4.90999985    2.76999998
   18.01444435  120.30100250    4.90999985    2.75000000
   18.01777840  126.95999908    4.90999985    2.76999998
   18.02111053  115.03700256    4.90999985    2.75000000
   18.02416611  119.96600342    4.90999985    2.76999998
   18.02750015  125.69899750    4.90999985    2.76999998
   18.03083229  119.51999664    4.90999985    2.75000000
   18.03388786  118.60700226    4.90999985    2.75000000
   18.03722191  107.19499969    4.90999985    2.75000000
   18.04027748  120.18399811    4.90999985    2.75000000
   18.04638863  120.18399811    4.90999985    2.75000000
   18.05055428  122.17900085    4.90999985    2.76999998
   18.05360985  115.32599640    4.90999985    2.75000000
   18.05694389  116.28500366    4.90999985    2.75000000
   18.06027794  121.48400116    4.90999985    2.75000000
   18.06333351  113.27799988    4.90999985    2.75000000
   18.06666756  121.44300079    4.90999985    2.75000000
   18.06972313  118.86299896    4.90999985    2.75000000
   18.07305717  117.09200287    4.90999985    2.75000000
   18.07638931  124.57700348    4.90999985    2.75000000
   18.07888985  118.87799835    4.90999985    2.75000000
   18.07972336  126.02799988    4.90999985    2.75000000
   18.08305550  113.02999878    4.90999985    2.75000000
   18.08916664  113.02999878    4.90999985    2.75000000
   18.09333420  117.37500000    4.90999985    2.75000000
   18.09638977  126.50199890    4.90999985    2.73000002
   18.09972191  121.73500061    4.90999985    2.75000000
   18.10305595  127.18900299    4.90999985    2.75000000
   18.10611153  116.13400269    4.90999985    2.75000000
   18.10944557  122.89099884    4.90999985    2.75000000
   18.11222267  119.63200378    4.90999985    2.75000000
   18.11305618  117.88200378    4.90999985    2.75000000
   18.11638832  127.90699768    4.90999985    2.75000000
   18.11944389  117.33399963    4.90999985    2.75000000
   18.12277794  124.95899963    4.90999985    2.75000000
   18.12611198  110.97599792    4.90999985    2.75000000
   18.13194466  110.97599792    4.90999985    2.75000000
   18.13611031  113.43000031    4.90999985    2.75000000
   18.13944435  110.88899994    4.90999985    2.75000000
   18.14249992  112.57599640    4.90999985    2.75000000
   18.14555550  114.00299835    4.90999985    2.75000000
   18.14611053  115.12200165    4.90999985    2.75000000
   18.14944458  115.56099701    4.90999985    2.75000000
   18.15277672  116.60500336    4.90999985    2.75000000
   18.15583229  117.84799957    4.90999985    2.75000000
   18.15916634  118.19899750    4.90999985    2.75000000
   18.16250038  118.87699890    4.90999985    2.76999998
   18.16555595  117.37899780    4.90999985    2.75000000
   18.16888809  117.34300232    4.90999985    2.75000000
   18.17499924  117.34300232    4.90999985    2.75000000
   18.17916679  113.33599854    4.90999985    2.75000000
   18.18222237  112.54000092    4.90999985    2.75000000
   18.18555450  113.02700043    4.90999985    2.75000000
   18.18861008  115.73500061    4.90999985    2.75000000
   18.19194412  120.29399872    4.90999985    2.75000000
   18.19527626  103.15100098    4.90999985    2.75000000
   18.19833183  113.61599731    4.90999985    2.75000000
   18.20166779  117.01100159    4.90999985    2.75000000
   18.20499992  120.42900085    4.90999985    2.75000000
   18.20805550  117.26000214    4.90999985    2.75000000
   18.21138954  109.01699829    4.90999985    2.73000002
   18.21222305  118.98799896    4.90999985    2.75000000
   18.23194504   72.53859711    4.90999985    2.75000000
   18.23250008   79.89440155    4.90999985    2.75000000
   18.23555565  114.79299927    4.90999985    2.73000002
   18.23888969  114.14199829    4.90999985    2.75000000
   18.24222183  116.75399780    4.90999985    2.76999998
   18.24527740  118.54499817    4.90999985    2.75000000
   18.24583435  118.33799744    4.90999985    2.75000000
   18.24916649  122.81900024    4.90999985    2.73000002
   18.25222206  122.30999756    4.90999985    2.75000000
   18.25555611  119.68699646    4.90999985    2.75000000
   18.26055527  119.68699646    4.90999985    2.75000000
   18.26472282  113.82900238    4.90999985    2.75000000
   18.26805496  112.20400238    4.90999985    2.75000000
   18.27111053  117.05599976    4.90999985    2.75000000
   18.27444458  115.33799744    4.90999985    2.75000000
   18.27777672  119.44799805    4.90999985    2.75000000
   18.27916718  116.78199768    4.90999985    2.75000000
   18.28138924  121.82399750    4.90999985    2.75000000
   18.28444481  121.30100250    4.90999985    2.75000000
   18.28777695  121.32900238    4.90999985    2.75000000
   18.29111099  119.56999969    4.90999985    2.73000002
   18.29416656  117.80400085    4.90999985    2.75000000
   18.29749870  120.24099731    4.90999985    2.75000000
   18.30333328  120.24099731    4.90999985    2.75000000
   18.30749893  112.72499847    4.90999985    2.75000000
   18.31083298  115.88300323    4.90999985    2.75000000
   18.31250000  115.51599884    4.90999985    2.75000000
   18.31444359  111.88200378    4.90999985    2.75000000
   18.31750107  113.94899750    4.90999985    2.75000000
   18.32083511  117.43399811    4.90999985    2.75000000
   18.32416725  116.91699982    4.90999985    2.73000002
   18.32722282  121.87899780    4.90999985    2.75000000
   18.33055687  119.35700226    4.90999985    2.75000000
   18.33388901  118.59200287    4.90999985    2.75000000
   18.33694458  125.48000336    4.90999985    2.75000000
   18.34027863  119.80899811    4.90999985    2.75000000
   18.34638977  119.80899811    4.90999985    2.75000000
   18.35055542  121.25700378    4.90999985    2.75000000
   18.35361099  120.27799988    4.90999985    2.75000000
   18.35694504  116.66400146    4.90999985    2.73000002
   18.36000061  106.95999908    4.90999985    2.75000000
   18.36333466  111.69300079    4.90999985    2.75000000
   18.36666679  109.71099854    4.90999985    2.75000000
   18.36972237  115.37300110    4.90999985    2.73000002
   18.37388992  119.50099945    4.90999985    2.73000002
   18.37694550  120.90000153    4.90999985    2.75000000
   18.37916756  115.37500000    4.90999985    2.75000000
   18.38083267  105.63800049    4.90999985    2.75000000
   18.38388824  113.52500153    4.90999985    2.75000000
   18.38916588  113.52500153    4.90999985    2.73000002
   18.39333344  114.95700073    4.90999985    2.73000002
   18.39638901  111.05999756    4.90999985    2.75000000
   18.39972115  112.36399841    4.90999985    2.73000002
   18.40305519  111.45500183    4.90999985    2.75000000
   18.40611076  115.48699951    4.90999985    2.73000002
   18.40944481  113.64700317    4.90999985    2.73000002
   18.41250038  109.88500214    4.90999985    2.73000002
   18.41305542  116.63800049    4.90999985    2.73000002
   18.41611099  115.22399902    4.90999985    2.75000000
   18.41944313  117.60800171    4.90999985    2.75000000
   18.42249870  114.09300232    4.90999985    2.73000002
   18.42583275  115.02600098    4.90999985    2.75000000
   18.43194389  115.02600098    4.90999985    2.73000002
   18.43610954  121.21099854    4.90999985    2.73000002
   18.43916512  112.91600037    4.90999985    2.73000002
   18.44249916  119.22699738    4.90999985    2.73000002
   18.44583321  121.26499939    4.90999985    2.75000000
   18.44638824  119.88600159    4.90999985    2.75000000
   18.44944382  115.16500092    4.90999985    2.75000000
   18.45277786  117.79399872    4.90999985    2.73000002
   18.45583344  114.48000336    4.90999985    2.75000000
   18.45916748  123.32499695    4.90999985    2.75000000
   18.46277809  111.07299805    4.90999985    2.73000002
   18.46583366  115.73999786    4.90999985    2.75000000
   18.46916771  113.76399994    4.90999985    2.73000002
   18.47472191  113.76399994    4.90999985    2.73000002
   18.47888947  111.78500366    4.90999985    2.73000002
   18.47944450  118.81800079    4.90999985    2.73000002
   18.48277855  120.24099731    4.90999985    2.73000002
   18.48583412  120.79599762    4.90999985    2.73000002
   18.48916626  120.55200195    4.90999985    2.73000002
   18.49250031  125.16200256    4.90999985    2.75000000
   18.49555588  117.79299927    4.90999985    2.75000000
   18.49888992  117.10900116    4.90999985    2.73000002
   18.50194359  116.52999878    4.90999985    2.73000002
   18.50527763  113.97000122    4.90999985    2.73000002
   18.50861168  118.08899689    4.90999985    2.73000002
   18.51166725  120.01499939    4.90999985    2.73000002
   18.51277733  116.05500031    4.90999985    2.73000002
   18.51777840  116.05500031    4.90999985    2.73000002
   18.52166557  109.36699677    4.90999985    2.73000002
   18.52499962  111.98300171    4.90999985    2.73000002
   18.52833366  109.09300232    4.90999985    2.73000002
   18.53138924  116.58499908    4.90999985    2.73000002
   18.53472137  111.73300171    4.90999985    2.73000002
   18.53805542  117.26399994    4.90999985    2.73000002
   18.54111099  116.30200195    4.90999985    2.73000002
   18.54444313  124.31700134    4.90999985    2.73000002
   18.54611015  114.95200348    4.90999985    2.73000002
   18.54805565  113.90799713    4.90999985    2.75000000
   18.55111122  119.06099701    4.90999985    2.73000002
   18.55444336  119.36699677    4.90999985    2.73000002
   18.56055450  119.36699677    4.90999985    2.75000000
   18.56472206  120.79900360    4.90999985    2.75000000
   18.56777954  114.76300049    4.90999985    2.73000002
   18.57111168  118.47200012    4.90999985    2.75000000
   18.57444572  119.69599915    4.90999985    2.73000002
   18.57750130  120.74700165    4.90999985    2.73000002
   18.57944489  120.43299866    4.90999985    2.73000002
   18.58139038  114.81800079    4.90999985    2.73000002
   18.58444595  113.73799896    4.90999985    2.73000002
   18.58777809  112.91400146    4.90999985    2.73000002
   18.59111214  117.75399780    4.90999985    2.73000002
   18.59416771  116.85900116    4.90999985    2.75000000
   18.59749985  116.90200043    4.90999985    2.75000000
   18.60333443  116.90200043    4.90999985    2.73000002
   18.60750008  116.33100128    4.90999985    2.73000002
   18.61055565  114.64900208    4.90999985    2.73000002
   18.61277771  115.46299744    4.90999985    2.73000002
   18.61444473  119.81300354    4.90999985    2.73000002
   18.61750031  116.96499634    4.90999985    2.73000002
   18.62083435  124.01499939    4.90999985    2.73000002
   18.62416649  122.07700348    4.90999985    2.73000002
   18.62722206  119.80999756    4.90999985    2.73000002
   18.63055611  118.57399750    4.90999985    2.75000000
   18.63361168  119.16300201    4.90999985    2.73000002
   18.63694382  115.59400177    4.90999985    2.75000000
   18.64027786  109.22499847    4.90999985    2.73000002
   18.64638901  109.22499847    4.90999985    2.73000002
   18.65055466  117.69000244    4.90999985    2.73000002
   18.65388870  116.31600189    4.90999985    2.73000002
   18.65722275  114.66600037    4.90999985    2.73000002
   18.66055489  109.37999725    4.90999985    2.73000002
   18.66361046  115.89800262    4.90999985    2.73000002
   18.66694450  116.95899963    4.90999985    2.73000002
   18.67000008  111.12699890    4.90999985    2.73000002
   18.67333221  111.49600220    4.90999985    2.73000002
   18.67666626  114.91600037    4.90999985    2.75000000
   18.67944336  115.88099670    4.90999985    2.73000002
   18.68027687  108.47699738    4.90999985    2.73000002
   18.68361092  116.49900055    4.90999985    2.73000002
   18.68916512  116.49900055    4.90999985    2.73000002
   18.69333267  116.45400238    4.90999985    2.73000002
   18.69638824  121.47299957    4.90999985    2.73000002
   18.69972038  113.50900269    4.90999985    2.73000002
   18.70277786  118.62200165    4.90999985    2.75000000
   18.70611191  121.60199738    4.90999985    2.75000000
   18.70944595  116.56099701    4.90999985    2.73000002
   18.71250153  122.11900330    4.90999985    2.73000002
   18.71305656  116.58100128    4.90999985    2.73000002
   18.71638870  121.35199738    4.90999985    2.73000002
   18.71972275  131.31300354    4.90999985    2.73000002
   18.72277832  121.73699951    4.90999985    2.73000002
   18.72611237  119.41500092    4.90999985    2.73000002
   18.73194504  119.41500092    4.90999985    2.73000002
   18.73611069  119.18199921    4.90999985    2.71000004
   18.73916626  120.66799927    4.90999985    2.73000002
   18.74250031  115.64299774    4.90999985    2.73000002
   18.74583435  108.75900269    4.90999985    2.73000002
   18.74638939  121.44499969    4.90999985    2.73000002
   18.74944496  110.84700012    4.90999985    2.73000002
   18.75277710  118.99299622    4.90999985    2.73000002
   18.75583267  116.87899780    4.90999985    2.73000002
   18.75916672  113.58399963    4.90999985    2.73000002
   18.76222229  119.25000000    4.90999985    2.71000004
   18.76555634  111.63899994    4.90999985    2.73000002
   18.76888847  121.30200195    4.90999985    2.73000002
   18.77472115  121.30200195    4.90999985    2.71000004
   18.77888870  114.69400024    4.90999985    2.71000004
   18.77972221  109.30000305    4.90999985    2.71000004
   18.78249931  108.13200378    4.90999985    2.71000004
   18.78583336  117.71399689    4.90999985    2.71000004
   18.78888893  117.60199738    4.90999985    2.71000004
   18.79222107  122.60600281    4.90999985    2.73000002
   18.79555511  119.14099884    4.90999985    2.73000002
   18.79861069  116.40000153    4.90999985    2.73000002
   18.80194283  125.60900116    4.90999985    2.73000002
   18.80499840  121.09200287    4.90999985    2.73000002
   18.80833244  122.18299866    4.90999985    2.73000002
   18.81166649  121.57399750    4.90999985    2.73000002
   18.81305504  123.50499725    4.90999985    2.73000002
   18.81750107  123.50499725    4.90999985    2.73000002
   18.82166672  120.48799896    4.90999985    2.73000002
   18.82500076  119.64600372    4.90999985    2.73000002
   18.82805634  118.71499634    4.90999985    2.73000002
   18.83139038  122.00900269    4.90999985    2.73000002
   18.83444595  121.84999847    4.90999985    2.73000002
   18.83777809  124.13999939    4.90999985    2.71000004
   18.84111214  112.94499969    4.90999985    2.73000002
   18.84416771  118.86699677    4.90999985    2.73000002
   18.84638977  118.80699921    4.90999985    2.73000002
   18.84805679  113.94100189    4.90999985    2.73000002
   18.85111237  126.63200378    4.90999985    2.73000002
   18.85444450  114.01399994    4.90999985    2.71000004
   18.86027908  114.01399994    4.90999985    2.73000002
   18.86444473  119.01599884    4.90999985    2.71000004
   18.86777878  114.25000000    4.90999985    2.71000004
   18.87083435  115.62300110    4.90999985    2.71000004
   18.87416649  122.01399994    4.90999985    2.71000004
   18.87750053  125.65100098    4.90999985    2.71000004
   18.87972260  114.90799713    4.90999985    2.73000002
   18.88111115  115.35900116    4.90999985    2.71000004
   18.88416672  115.02300262    4.90999985    2.73000002
   18.88750076  124.20800018    4.90999985    2.71000004
   18.89083290  112.98400116    4.90999985    2.71000004
   18.89388847  117.39099884    4.90999985    2.71000004
   18.89722252  115.28600311    4.90999985    2.73000002
   18.90333366  115.28600311    4.90999985    2.71000004
   18.90749931  118.16600037    4.90999985    2.71000004
   18.91194344  123.51000214    4.90999985    2.71000004
   18.91305542  110.16300201    4.90999985    2.71000004
   18.91555595  119.66799927    4.90999985    2.71000004
   18.91888809  121.05599976    4.90999985    2.71000004
   18.92333221  115.43699646    4.90999985    2.71000004
   18.92638779  123.29900360    4.90999985    2.67000008
   18.92972183  112.82599640    4.90999985    2.71000004
   18.93305397  114.30500031    4.90999985    2.71000004
   18.93638802  111.09400177    4.90999985    2.71000004
   18.93944359  121.97699738    4.90999985    2.71000004
   18.94861031  121.97699738    4.90999985    2.73000002
   18.95277786  118.66500092    4.90999985    2.71000004
   18.95611191  121.79699707    4.90999985    2.71000004
   18.95916748  109.50800323    4.90999985    2.71000004
   18.96250153  116.93599701    4.90999985    2.71000004
   18.96583366  120.58200073    4.90999985    2.71000004
   18.96888924  119.81300354    4.90999985    2.73000002
   18.97222328  116.62300110    4.90999985    2.71000004
   18.97527885  117.27300262    4.90999985    2.71000004
   18.97861099  114.51200104    4.90999985    2.71000004
   18.98194504  112.77100372    4.90999985    2.71000004
   18.98361206  108.80599976    4.90999985    2.71000004
   18.98916626  108.80599976    4.90999985    2.71000004
   18.99333382  120.19100189    4.90999985    2.71000004
   18.99666786  116.41600037    4.90999985    2.71000004
   18.99972153  111.62799835    4.90999985    2.71000004
   19.00305557  116.77600098    4.90999985    2.71000004
   19.00638962  114.13999939    4.90999985    2.71000004
   19.00944519  118.59100342    4.90999985    2.71000004
   19.01277733  115.63300323    4.90999985    2.69000006
   19.01611137  114.40799713    4.90999985    2.71000004
   19.01694489  115.03399658    4.90999985    2.71000004
   19.01972198  113.05799866    4.90999985    2.71000004
   19.02305603  116.67099762    4.90999985    2.71000004
   19.02611160  111.88999939    4.90999985    2.71000004
   19.03194427  111.88999939    4.90999985    2.71000004
   19.03583336  120.47200012    4.90999985    2.71000004
   19.03916550  121.05500031    4.90999985    2.73000002
   19.04249954  117.26399994    4.90999985    2.71000004
   19.04555511  121.17199707    4.90999985    2.71000004
   19.04888916  113.53600311    4.90999985    2.71000004
   19.05027771  120.61900330    4.90999985    2.71000004
   19.05249977  112.95500183    4.90999985    2.71000004
   19.05583191  117.43000031    4.90999985    2.71000004
   19.05888748  118.28600311    4.90999985    2.71000004
   19.06222153  119.42400360    4.90999985    2.71000004
   19.06555557  113.14099884    4.90999985    2.71000004
   19.06861115  115.82599640    4.90999985    2.71000004
   19.07472229  115.82599640    4.90999985    2.71000004
   19.07888985  111.59200287    4.90999985    2.71000004
   19.08194542  121.25599670    4.90999985    2.71000004
   19.08361244  107.50399780    4.90999985    2.71000004
   19.08555603  108.64800262    4.90999985    2.71000004
   19.08889008  116.72100067    4.90999985    2.71000004
   19.09222221  112.78199768    4.90999985    2.71000004
   19.09527779  110.25099945    4.90999985    2.71000004
   19.09861183  115.90499878    4.90999985    2.71000004
   19.10194397  113.99700165    4.90999985    2.71000004
   19.10499954  122.54100037    4.90999985    2.71000004
   19.10833359  121.10099792    4.90999985    2.73000002
   19.11138916  115.76300049    4.90999985    2.71000004
   19.11750031  115.76300049    4.90999985    2.71000004
   19.12166595  120.39199829    4.90999985    2.71000004
   19.12500000  113.77999878    4.90999985    2.71000004
   19.12805557  123.13800049    4.90999985    2.71000004
   19.13138962  114.93599701    4.90999985    2.71000004
   19.13444519  110.79399872    4.90999985    2.71000004
   19.13777733  114.52200317    4.90999985    2.71000004
   19.14111137  114.22399902    4.90999985    2.71000004
   19.14416695  114.45300293    4.90999985    2.71000004
   19.14749908  110.28600311    4.90999985    2.71000004
   19.15027809  118.48799896    4.90999985    2.71000004
   19.15111160  121.55400085    4.90999985    2.71000004
   19.15444374  119.42600250    4.90999985    2.71000004
   19.16027832  119.42600250    4.90999985    2.69000006
   19.16444397  115.19200134    4.90999985    2.69000006
   19.16777802  117.60600281    4.90999985    2.71000004
   19.17083359  117.36299896    4.90999985    2.71000004
   19.17416573  116.80100250    4.90999985    2.71000004
   19.17749977  113.97599792    4.90999985    2.69000006
   19.18055534  123.38899994    4.90999985    2.71000004
   19.18361092  115.18699646    4.90999985    2.71000004
   19.18416595  118.69899750    4.90999985    2.69000006
   19.18750000  115.98999786    4.90999985    2.69000006
   19.19055557  111.60099792    4.90999985    2.69000006
   19.19388771  114.72599792    4.90999985    2.71000004
   19.19722176  110.75599670    4.90999985    2.71000004
   19.20333481  110.75599670    4.90999985    2.69000006
   19.20722389  121.99500275    4.90999985    2.71000004
   19.21055603  114.33899689    4.90999985    2.71000004
   19.21389008  115.94699860    4.90999985    2.71000004
   19.21722221  117.33899689    4.90999985    2.69000006
   19.21750069  114.55300140    4.90999985    2.69000006
   19.22083473  123.26999664    4.90999985    2.69000006
   19.22389030  118.22499847    4.90999985    2.69000006
   19.22722244  120.27500153    4.90999985    2.69000006
   19.23055649  118.12400055    4.90999985    2.69000006
   19.25250053  118.12400055    4.90999985    2.69000006
   19.25666618  110.97599792    4.90999985    2.69000006
   19.25972176  112.28800201    4.90999985    2.69000006
   19.26305580  119.52600098    4.90999985    2.67000008
   19.26611137  106.98000336    4.90999985    2.69000006
   19.26944351  117.01499939    4.90999985    2.69000006
   19.27277756  119.34400177    4.90999985    2.67000008
   19.27583313  110.17099762    4.90999985    2.69000006
   19.27916718  111.40899658    4.90999985    2.69000006
   19.28249931  117.25800323    4.90999985    2.69000006
   19.28388786  109.57499695    4.90999985    2.69000006
   19.28610992  110.98600006    4.90999985    2.69000006
   19.28944397  111.18800354    4.90999985    2.69000006
   19.29527664  111.18800354    4.90999985    2.69000006
   19.29916573  113.69200134    4.90999985    2.67000008
   19.30249977  109.50299835    4.90999985    2.69000006
   19.30583191  111.02300262    4.90999985    2.69000006
   19.30888748  108.43900299    4.90999985    2.69000006
   19.31222153  116.07700348    4.90999985    2.69000006
   19.31555557  115.45099640    4.90999985    2.69000006
   19.31722260  110.52400208    4.90999985    2.69000006
   19.31916809  107.54799652    4.90999985    2.71000004
   19.32222366  115.64700317    4.90999985    2.69000006
   19.32555580  107.44200134    4.90999985    2.69000006
   19.32888985  113.74299622    4.90999985    2.69000006
   19.33194542  113.74299622    4.90999985    2.69000006
   19.33805656  113.74299622    4.90999985    2.67000008
   19.34194565  116.18699646    4.90999985    2.69000006
   19.34527779  119.29799652    4.90999985    2.69000006
   19.34861183  117.75000000    4.90999985    2.69000006
   19.35055542  116.30300140    4.90999985    2.69000006
   19.35222244  117.05400085    4.90999985    2.69000006
   19.35527802  119.99199677    4.90999985    2.67000008
   19.35861206  117.75399780    4.90999985    2.67000008
   19.36194420  114.70600128    4.90999985    2.69000006
   19.36499977  115.63099670    4.90999985    2.69000006
   19.36833382  121.24600220    4.90999985    2.67000008
   19.37166595  115.30100250    4.90999985    2.69000006
   19.37472153  124.99299622    4.90999985    2.69000006
   19.38083267  124.99299622    4.90999985    2.67000008
   19.38500023  117.93499756    4.90999985    2.67000008
   19.38805580  115.97299957    4.90999985    2.67000008
   19.39138794  117.33200073    4.90999985    2.67000008
   19.39472198  116.15899658    4.90999985    2.67000008
   19.39777756  115.55300140    4.90999985    2.67000008
   19.40111160  113.53800201    4.90999985    2.67000008
   19.40444374  114.26999664    4.90999985    2.67000008
   19.40749931  116.55500031    4.90999985    2.69000006
   19.41083336  111.33399963    4.90999985    2.69000006
   19.41388893  113.43199921    4.90999985    2.67000008
   19.41722107  116.85099792    4.90999985    2.69000006
   19.41777802  113.08499908    4.90999985    2.67000008
   19.42361069  113.08499908    4.90999985    2.67000008
   19.42833328  117.44200134    4.90999985    2.69000006
   19.43166542  117.85900116    4.90999985    2.69000006
   19.43472099  120.99600220    4.90999985    2.67000008
   19.43805504  118.77400208    4.90999985    2.67000008
   19.44138718  116.00299835    4.90999985    2.67000008
   19.44444275  120.46399689    4.90999985    2.69000006
   19.44777679  118.89800262    4.90999985    2.67000008
   19.45083427  119.90399933    4.90999985    2.69000006
   19.45138931  119.99500275    4.90999985    2.67000008
   19.45472336  112.02100372    4.90999985    2.67000008
   19.45805550  112.19699860    4.90999985    2.69000006
   19.47000122  120.39600372    0.00000000    0.00000000
   19.47416687  120.39600372    4.90999985    2.67000008
   19.47833443  123.50599670    4.90999985    2.67000008
   19.48166656  118.08200073    4.90999985    2.67000008
   19.48472214  119.96900177    4.90999985    2.67000008
   19.48583412  116.99700165    4.90999985    2.67000008
   19.48833275  112.84700012    4.90999985    2.67000008
   19.49166679  115.79900360    4.90999985    2.67000008
   19.49500084  114.81800079    4.90999985    2.67000008
   19.49805641  116.71499634    4.90999985    2.66000009
   19.50138855  115.59600067    4.90999985    2.67000008
   19.50444412  108.39800262    4.90999985    2.67000008
   19.50777817  112.58300018    4.90999985    2.67000008
   19.51111031  114.66000366    4.90999985    2.67000008
   19.51694489  114.66000366    4.90999985    2.67000008
   19.52111053  114.59899902    4.90999985    2.67000008
   19.52444458  110.53299713    4.90999985    2.67000008
   19.52777672  115.32499695    4.90999985    2.67000008
   19.53083229  116.59799957    4.90999985    2.67000008
   19.53416634  116.20600128    4.90999985    2.67000008
   19.53722191  104.74600220    4.90999985    2.66000009
   19.54055595  113.33699799    4.90999985    2.67000008
   19.54388809  114.12100220    4.90999985    2.67000008
   19.54694366  119.60600281    4.90999985    2.66000009
   19.55027771  117.21900177    4.90999985    2.67000008
   19.55249977  112.61900330    4.90999985    2.66000009
   19.55388832  117.15100098    4.90999985    2.66000009
   19.55999947  117.15100098    4.90999985    2.66000009
   19.56416512  112.05799866    4.90999985    2.67000008
   19.56722260  118.11599731    4.90999985    2.67000008
   19.57055664  116.43699646    4.90999985    2.67000008
   19.57361221  115.06400299    4.90999985    2.67000008
   19.57777786  114.23799896    4.90999985    2.66000009
   19.58111191  113.07700348    4.90999985    2.66000009
   19.58444595  117.97899628    4.90999985    2.66000009
   19.58583450  115.16200256    4.90999985    2.66000009
   19.58777809  112.74099731    4.90999985    2.66000009
   19.59111214  118.11199951    4.90999985    2.66000009
   19.59444427  114.73999786    4.90999985    2.66000009
   19.59749985  111.66100311    4.90999985    2.66000009
   19.60277748  111.66100311    4.90999985    2.67000008
   19.60694504  115.53600311    4.90999985    2.67000008
   19.61000061  118.38300323    4.90999985    2.67000008
   19.61333466  113.24600220    4.90999985    2.66000009
   19.61666679  115.89399719    4.90999985    2.66000009
   19.61916733  117.85099792    4.90999985    2.66000009
   19.62027740  109.31400299    4.90999985    2.66000009
   19.62361145  116.41699982    4.90999985    2.66000009
   19.62666702  115.20300293    4.90999985    2.66000009
   19.63000107  119.91600037    4.90999985    2.66000009
   19.63333321  109.35199738    4.90999985    2.66000009
   19.63638878  112.76999664    4.90999985    2.66000009
   19.63972282  110.02799988    4.90999985    2.66000009
   19.64555550  110.02799988    4.90999985    2.66000009
   19.64972115  110.88999939    4.90999985    2.66000009
   19.65250015  108.70300293    4.90999985    2.66000009
   19.65333366  112.39099884    4.90999985    2.66000009
   19.65638924  117.98000336    4.90999985    2.66000009
   19.65972137  114.25700378    4.90999985    2.66000009
   19.66305542  118.56400299    4.90999985    2.64000010
   19.66611099  111.72200012    4.90999985    2.66000009
   19.66944313  114.34400177    4.90999985    2.66000009
   19.67277718  116.02700043    4.90999985    2.64000010
   19.67583275  121.95899963    4.90999985    2.64000010
   19.67916679  124.69799805    4.90999985    2.64000010
   19.68249893  125.52300262    4.90999985    2.66000009
   19.68833160  125.52300262    4.90999985    2.64000010
   19.69249916  121.73000336    4.90999985    2.64000010
   19.69583321  122.74800110    4.90999985    2.64000010
   19.69888878  117.62899780    4.90999985    2.64000010
   19.70222282  111.92099762    4.90999985    2.64000010
   19.70555687  117.72200012    4.90999985    2.64000010
   19.70861244  119.83100128    4.90999985    2.66000009
   19.71194458  115.40499878    4.90999985    2.64000010
   19.71527863  111.51899719    4.90999985    2.64000010
   19.71833420  114.76899719    4.90999985    2.64000010
   19.71916771  115.26100159    4.90999985    2.64000010
   19.72194481  112.45200348    4.90999985    2.64000010
   19.72527885  105.51899719    4.90999985    2.64000010
   19.73111153  105.51899719    4.90999985    2.64000010
   19.73555565  112.77899933    4.90999985    2.64000010
   19.73861122  111.72799683    4.90999985    2.64000010
   19.74194527  112.12400055    4.90999985    2.64000010
   19.74500084  109.84200287    4.90999985    2.64000010
   19.74833298  114.23899841    4.90999985    2.64000010
   19.75166702  111.84799957    4.90999985    2.64000010
   19.75277710  115.31900024    4.90999985    2.66000009
   19.75499916  111.32399750    4.90999985    2.64000010
   19.75833321  110.04499817    4.90999985    2.64000010
   19.76166725  109.43099976    4.90999985    2.64000010
   19.76472282  119.19100189    4.90999985    2.64000010
   19.76805496  122.08599854    4.90999985    2.64000010
   19.77416611  122.08599854    4.90999985    2.64000010
   19.77861023  115.72799683    4.90999985    2.66000009
   19.78166580  116.33100128    4.90999985    2.64000010
   19.78499985  116.82800293    4.90999985    2.64000010
   19.78610992  112.82399750    4.90999985    2.64000010
   19.78861046  112.51399994    4.90999985    2.64000010
   19.79194450  119.72799683    4.90999985    2.64000010
   19.79500008  111.11900330    4.90999985    2.64000010
   19.79833221  113.70300293    4.90999985    2.64000010
   19.80166626  117.65499878    4.90999985    2.64000010
   19.80472183  116.55799866    4.90999985    2.64000010
   19.80805397  117.24900055    4.90999985    2.64000010
   19.81138802  106.79900360    4.90999985    2.64000010
   19.81694603  106.79900360    4.90999985    2.64000010
   19.82111168  108.82299805    4.90999985    2.64000010
   19.82444572  112.02400208    4.90999985    2.64000010
   19.82750130  113.71099854    4.90999985    2.64000010
   19.83083344  112.68699646    4.90999985    2.61999989
   19.83416748  111.50399780    4.90999985    2.61999989
   19.83722305  112.23100281    4.90999985    2.64000010
   19.84055710  117.37799835    4.90999985    2.64000010
   19.84388924  114.57700348    4.90999985    2.61999989
   19.84694481  115.75900269    4.90999985    2.61999989
   19.85027885  106.11799622    4.90999985    2.61999989
   19.85277748  124.84500122    4.90999985    2.61999989
   19.85388947  110.98200226    4.90999985    2.64000010
   19.85972214  110.98200226    4.90999985    2.64000010
   19.86388969  111.58799744    4.90999985    2.61999989
   19.86722183  112.41300201    4.90999985    2.61999989
   19.87055588  110.78500366    4.90999985    2.64000010
   19.87361145  112.20600128    4.90999985    2.64000010
   19.87694550  106.61699677    4.90999985    2.61999989
   19.88027763  109.56700134    4.90999985    2.64000010
   19.88333321  109.65699768    4.90999985    2.61999989
   19.88611031  105.63700104    4.90999985    2.64000010
   19.88694382  103.00399780    4.90999985    2.64000010
   19.89027786  107.79299927    4.90999985    2.64000010
   19.89333344  104.66600037    4.90999985    2.61999989
   19.89666748  101.67600250    4.90999985    2.64000010
   19.90277672  101.67600250    4.90999985    2.61999989
   19.90694427  117.30699921    4.90999985    2.61999989
   19.90999985  121.39700317    4.90999985    2.61999989
   19.91333389  119.30799866    4.90999985    2.61999989
   19.91638756  123.18399811    4.90999985    2.61999989
   19.91944313  113.08999634    4.90999985    2.61999989
   19.92000008  115.51599884    4.90999985    2.61999989
   19.92333221  120.77100372    4.90999985    2.61999989
   19.92638779  110.92099762    4.90999985    2.61999989
   19.92972183  119.55999756    4.90999985    2.61999989
   19.93305397  118.62200165    4.90999985    2.59999990
   19.93610954  117.68099976    4.90999985    2.61999989
   19.93944359  110.70700073    4.90999985    2.61999989
   19.94555473  110.70700073    4.90999985    2.61999989
   19.94972038  117.81199646    4.90999985    2.61999989
   19.95305634  116.34999847    4.90999985    2.61999989
   19.95333481  118.95700073    4.90999985    2.61999989
   19.95666695  110.26200104    4.90999985    2.61999989
   19.95972252  111.71700287    4.90999985    2.61999989
   19.96305656  107.86499786    4.90999985    2.61999989
   19.96638870  112.53900146    4.90999985    2.61999989
   19.96944427  113.61699677    4.90999985    2.61999989
   19.97277832  106.61100006    4.90999985    2.61999989
   19.97611237  110.27700043    4.90999985    2.59999990
   19.97916794  121.94499969    4.90999985    2.59999990
   19.98250008  111.28500366    4.90999985    2.59999990
   19.98833275  111.28500366    4.90999985    2.59999990
   19.99250031  107.32800293    4.90999985    2.59999990
   19.99583435  105.71099854    4.90999985    2.59999990
   19.99888992  101.72399902    4.90999985    2.59999990
   20.00222206  114.99400330    4.90999985    2.59999990
   20.00555611  104.63899994    4.90999985    2.59999990
   20.00861168  112.17900085    4.90999985    2.59999990
   20.01194382  113.50299835    4.90999985    2.59999990
   20.01527786  111.61900330    4.90999985    2.59999990
   20.01833344  119.95500183    4.90999985    2.57999992
   20.01972198  118.20800018    4.90999985    2.59999990
   20.02194405  114.77899933    4.90999985    2.59999990
   20.02527809  113.46900177    4.90999985    2.59999990
   20.03111076  113.46900177    4.90999985    2.59999990
   20.03527641  122.22100067    4.90999985    2.59999990
   20.03861046  123.68599701    4.90999985    2.59999990
   20.04194450  117.45099640    4.90999985    2.59999990
   20.04500008  120.61599731    4.90999985    2.59999990
   20.04833221  121.79100037    4.90999985    2.59999990
   20.05166626  118.60399628    4.90999985    2.59999990
   20.05305481  113.88099670    4.90999985    2.59999990
   20.05499840  120.92700195    4.90999985    2.59999990
   20.05833244  120.48000336    4.90999985    2.59999990
   20.06166649  122.90799713    4.90999985    2.59999990
   20.06472206  119.30500031    4.90999985    2.59999990
   20.06805611  119.63899994    4.90999985    2.59999990
   20.07416725  119.63899994    4.90999985    2.59999990
   20.07833481  115.48300171    4.90999985    2.59999990
   20.08139038  124.65599823    4.90999985    2.59999990
   20.08472252  118.89800262    4.90999985    2.59999990
   20.08638954  111.66100311    4.90999985    2.59999990
   20.08833313  123.81999969    4.90999985    2.59999990
   20.09166718  116.56900024    4.90999985    2.59999990
   20.09472275  118.15100098    4.90999985    2.57999992
   20.09805679  118.91999817    4.90999985    2.57999992
   20.10138893  125.28299713    4.90999985    2.57999992
   20.10444450  122.80999756    4.90999985    2.59999990
   20.10777855  121.61000061    4.90999985    2.57999992
   20.11083412  116.38500214    4.90999985    2.57999992
   20.11694527  116.38500214    4.90999985    2.57999992
   20.12111092  116.00700378    4.90999985    2.57999992
   20.12444496  112.74800110    4.90999985    2.57999992
   20.12750053  116.73999786    4.90999985    2.57999992
   20.13083267  113.73400116    4.90999985    2.57999992
   20.13416672  117.25900269    4.90999985    2.55999994
   20.13722229  117.54000092    4.90999985    2.57999992
   20.14055634  113.58899689    4.90999985    2.57999992
   20.14361191  120.82800293    4.90999985    2.57999992
   20.14694405  113.42400360    4.90999985    2.55999994
   20.15027809  115.03700256    4.90999985    2.55999994
   20.15305519  120.28600311    4.90999985    2.55999994
   20.15388870  123.18000031    4.90999985    2.57999992
   20.15972137  123.18000031    4.90999985    2.57999992
   20.16388893  117.22599792    4.90999985    2.57999992
   20.16722107  118.86599731    4.90999985    2.55999994
   20.17027664  122.15100098    4.90999985    2.55999994
   20.17361069  116.52400208    4.90999985    2.55999994
   20.18583298  114.08399963    0.00000000    0.00000000
   20.18638802  120.24199677    4.90999985    2.57999992
   20.18944359  115.56700134    4.90999985    2.55999994
   20.19277763  115.57599640    4.90999985    2.55999994
   20.19583321  118.22499847    4.90999985    2.57999992
   20.20250130  118.22499847    4.90999985    2.55999994
   20.20666695  114.88999939    4.90999985    2.55999994
   20.21000099  123.58699799    4.90999985    2.55999994
   20.21333504  111.91999817    4.90999985    2.55999994
   20.21638870  109.37300110    4.90999985    2.55999994
   20.21972275  117.06099701    4.90999985    2.55999994
   20.22027779  119.70300293    4.90999985    2.55999994
   20.22333336  118.47799683    4.90999985    2.55999994
   20.22666740  121.38500214    4.90999985    2.55999994
   20.23000145  112.29599762    4.90999985    2.55999994
   20.23305511  123.54699707    4.90999985    2.55999994
   20.23638916  119.47499847    4.90999985    2.55999994
   20.23944473  115.87999725    4.90999985    2.55999994
   20.24527740  115.87999725    4.90999985    2.55999994
   20.24944496  117.64299774    4.90999985    2.55999994
   20.25277710  116.49299622    4.90999985    2.55999994
   20.25333405  111.45800018    4.90999985    2.55999994
   20.25638962  112.66799927    4.90999985    2.55999994
   20.27611160  114.24700165    4.90999985    2.55999994
   20.27944374  109.34300232    4.90999985    2.55999994
   20.28249931  121.31300354    4.90999985    2.55999994
   20.28833199  121.31300354    4.90999985    2.57999992
   20.29249954  113.63700104    4.90999985    2.55999994
   20.29583359  111.86100006    4.90999985    2.55999994
   20.29888916  122.82900238    4.90999985    2.55999994
   20.30222130  122.80799866    4.90999985    2.55999994
   20.30527687  125.90100098    4.90999985    2.55999994
   20.30861092  127.09899902    4.90999985    2.55999994
   20.31194305  127.42199707    4.90999985    2.55999994
   20.31499863  124.87000275    4.90999985    2.53999996
   20.31833458  126.52200317    4.90999985    2.53999996
   20.32027817  126.52100372    4.90999985    2.55999994
   20.32194519  129.01100159    4.90999985    2.53999996
   20.32500076  129.15400696    4.90999985    2.55999994
   20.33111191  129.15400696    4.90999985    2.55999994
   20.33527756  118.59600067    4.90999985    2.53999996
   20.33861160  121.47000122    4.90999985    2.53999996
   20.34194565  117.47100067    4.90999985    2.53999996
   20.34500122  128.38000488    4.90999985    2.53999996
   20.34833336  125.47000122    4.90999985    2.53999996
   20.35138893  125.22799683    4.90999985    2.53999996
   20.35361099  122.88800049    4.90999985    2.53999996
   20.35527802  119.54199982    4.90999985    2.53999996
   20.35833359  122.97699738    4.90999985    2.53999996
   20.36166763  117.38600159    4.90999985    2.53999996
   20.36499977  113.03399658    4.90999985    2.53999996
   20.36805534  122.42500305    4.90999985    2.53999996
   20.37416649  122.42500305    4.90999985    2.53999996
   20.37833405  115.79699707    4.90999985    2.53999996
   20.38138962  120.96199799    4.90999985    2.53999996
   20.38472176  117.62999725    4.90999985    2.53999996
   20.38694382  118.16200256    4.90999985    2.53999996
   20.38833237  121.20500183    4.90999985    2.53999996
   20.39166641  114.51699829    4.90999985    2.51999998
   20.39472198  119.16600037    4.90999985    2.51999998
   20.39805603  110.77300262    4.90999985    2.53999996
   20.40111160  129.57400513    4.90999985    2.53999996
   20.40444374  120.81999969    4.90999985    2.51999998
   20.40777779  124.97799683    4.90999985    2.53999996
   20.41110992  119.79199982    4.90999985    2.53999996
   20.41694450  119.79199982    4.90999985    2.51999998
   20.42111015  118.15200043    4.90999985    2.53999996
   20.42416573  120.08699799    4.90999985    2.51999998
   20.42749977  115.67700195    4.90999985    2.53999996
   20.43083191  118.84700012    4.90999985    2.51999998
   20.43388748  119.71299744    4.90999985    2.53999996
   20.43722153  112.94499969    4.90999985    2.53999996
   20.44055557  105.81900024    4.90999985    2.53999996
   20.44361115  117.92900085    4.90999985    2.53999996
   20.44694328  116.15699768    4.90999985    2.53999996
   20.45000076  110.71700287    4.90999985    2.53999996
   20.45333481  118.28399658    4.90999985    2.53999996
   20.45388985  111.95400238    4.90999985    2.53999996
   20.45972252  111.95400238    4.90999985    2.53999996
   20.46389008  117.89499664    4.90999985    2.53999996
   20.46722221  116.06999969    4.90999985    2.53999996
   20.47027779  125.03700256    4.90999985    2.53999996
   20.47361183  116.51699829    4.90999985    2.53999996
   20.47694588  124.04000092    4.90999985    2.53999996
   20.48000145  122.01000214    4.90999985    2.53999996
   20.48333359  117.47699738    4.90999985    2.53999996
   20.48666763  123.91699982    4.90999985    2.55999994
   20.48722267  111.95200348    4.90999985    2.55999994
   20.49027824  118.38800049    4.90999985    2.55999994
   20.49361229  147.63000488    4.90999985    2.34999990
   20.49666786  118.87300110    4.90999985    2.23000002
   20.50250053  118.87300110    4.90999985    2.30999994
   20.50666618  137.07099915    4.90999985    2.34999990
   20.51000023  132.28300476    4.90999985    2.34999990
   20.51333427  123.23300171    4.90999985    2.36999989
   20.51638794  160.12300110    4.90999985    2.30999994
   20.51972198  165.49099731    4.90999985    2.15000010
   20.52055550  171.70199585    4.90999985    2.17000008
   20.52333260  152.18099976    4.90999985    2.23000002
   20.52638817  137.08999634    4.90999985    2.30999994
   20.52972221  134.44000244    4.90999985    2.34999990
   20.53305435  149.77999878    4.90999985    2.34999990
   20.53610992  132.10200500    4.90999985    2.36999989
   20.53944397  137.70199585    4.90999985    2.42000008
   20.54555511  137.70199585    4.90999985    2.50000000
   20.54972076  129.92799377    4.90999985    2.44000006
   20.55277634  126.18199921    4.90999985    2.39000010
   20.55388832  136.67199707    4.90999985    2.34999990
   20.55666542  182.73500061    4.90999985    2.28999996
   20.55972099  134.44900513    4.90999985    2.28999996
   20.56305504  152.02999878    4.90999985    2.21000004
   20.56611061  168.16799927    4.90999985    2.13000011
   20.56944466  378.62600708    4.90999985    2.13000011
   20.57277870  142.35499573    4.90999985    2.15000010
   20.57583427  166.09100342    4.90999985    2.15000010
   20.57916832  165.88000488    4.90999985    2.17000008
   20.58250046  157.84500122    4.90999985    2.25000000
   20.58833313  157.84500122    4.90999985    2.32999992
   20.59250069  149.76199341    4.90999985    2.26999998
   20.59555626  126.82800293    4.90999985    2.23000002
   20.59889030  145.53799438    4.90999985    2.28999996
   20.60222244  152.02400208    4.90999985    2.26999998
   20.60527802  125.58399963    4.90999985    2.21000004
   20.60861206  148.22799683    4.90999985    2.21000004
   20.61166763  152.18899536    4.90999985    2.21000004
   20.61499977  160.82400513    4.90999985    2.23000002
   20.61833382  166.37899780    4.90999985    2.28999996
   20.62055588  149.18299866    4.90999985    2.30999994
   20.62194443  145.53700256    4.90999985    2.30999994
   20.62500000  160.80099487    4.90999985    2.28999996
   20.63111115  160.80099487    4.90999985    2.32999992
   20.63527679  147.41400146    4.90999985    2.32999992
   20.63861084  150.10200500    4.90999985    2.32999992
   20.64166641  136.17799377    4.90999985    2.30999994
   20.64500046  165.89999390    4.90999985    2.25000000
   20.64805603  156.13600159    4.90999985    2.23000002
   20.65138817  165.06100464    4.90999985    2.23000002
   20.65388870  169.70700073    4.90999985    2.25000000
   20.65527725  157.07000732    4.90999985    2.26999998
   20.65833282  143.71699524    4.90999985    2.25000000
   20.66166687  175.35299683    4.90999985    2.23000002
   20.66472244  149.41799927    4.90999985    2.23000002
   20.66805458  188.80999756    4.90999985    2.21000004
   20.67388916  188.80999756    4.90999985    2.15000010
   20.67805481  156.40400696    4.90999985    2.15000010
   20.68138885  258.90899658    4.90999985    2.05999994
   20.68444443  184.28500366    4.90999985    2.05999994
   20.68722153  172.95500183    4.90999985    2.17000008
   20.68833160  166.56700134    4.90999985    2.17000008
   20.69138718  189.14999390    4.90999985    2.15000010
   20.69472122  193.97099304    4.90999985    2.09999990
   20.69777679  211.15299988    4.90999985    2.01999998
   20.70111275  230.32099915    4.90999985    1.96000004
   20.70444489  213.28799438    4.90999985    1.73000002
   20.70750046  217.62500000    4.90999985    1.71000004
   20.71083450  173.71800232    4.90999985    1.78999996
   20.71694565  173.71800232    4.90999985    1.64999998
   20.72083473   -1.00000000    4.90999985    1.48000002
   20.72416687   45.70280075    4.90999985    1.53999996
   20.72750092  167.41299438    4.90999985    1.66999996
   20.73055649  193.87699890    4.90999985    1.80999994
   20.73388863  193.11599731    4.90999985    1.78999996
   20.73722267  100.07900238    4.90999985    1.64999998
   20.74027824  115.70200348    4.90999985    1.69000006
   20.74361229  120.71900177    4.90999985    1.71000004
   20.74694443  169.63999939    4.90999985    1.71000004
   20.75000000   96.25460052    4.90999985    1.73000002
   20.75333405   99.40570068    4.90999985    1.69000006
   20.75388908  128.16499329    4.90999985    1.69000006
   20.75972176  128.16499329    4.90999985    1.66999996
   20.76388931   97.74420166    4.90999985    1.63000000
   20.76694489  117.57700348    4.90999985    1.66999996
   20.77027702  129.94799805    4.90999985    1.71000004
   20.77361107  195.30999756    4.90999985    1.76999998
   20.77666664  158.89399719    4.90999985    1.76999998
   20.78000069  190.78700256    4.90999985    1.76999998
   20.78305435  133.22300720    4.90999985    1.76999998
   20.78638840   90.49900055    4.90999985    1.71000004
   20.78722191   86.82579803    4.90999985    1.66999996
   20.78999901  100.01799774    4.90999985    1.64999998
   20.79305458  121.86399841    4.90999985    1.66999996
   20.79638863  169.70599365    4.90999985    1.71000004
   20.80249977  169.70599365    4.90999985    1.78999996
   20.80666542   94.64880371    4.90999985    1.71000004
   20.80999947  126.19499969    4.90999985    1.66999996
   20.81305504  119.86399841    4.90999985    1.71000004
   20.81638718   83.55490112    4.90999985    1.69000006
   20.81944466   73.31060028    4.90999985    1.61000001
   20.82055664   68.36380005    4.90999985    1.60000002
   20.82333374   77.22180176    4.90999985    1.58000004
   20.82638931   77.74120331    4.90999985    1.55999994
   20.82972336   69.98570251    4.90999985    1.60000002
   20.83305550   -1.00000000   -1.00000000   -1.00000000
   20.83611107   41.88769913    4.90999985    1.60000002
   20.83944511   -1.00000000    4.90999985    1.61000001
   20.84527779   -1.00000000    4.90999985    1.60000002
   20.84944534   -1.00000000    4.90999985    1.55999994
   20.85277748   -1.00000000    4.90999985    1.53999996
   20.85611153   -1.00000000    4.90999985    1.53999996
   20.85944557   -1.00000000    4.90999985    1.53999996
   20.86277771   -1.00000000    4.90999985    1.51999998
   20.86583328   -1.00000000    4.90999985    1.55999994
   20.86916733   -1.00000000    4.90999985    1.61000001
   20.87222290   -1.00000000    4.90999985    1.71000004
   20.87555504   -1.00000000    4.90999985    1.73000002
   20.87888908   -1.00000000    4.90999985    1.71000004
   20.88194466   -1.00000000    4.90999985    1.71000004
