    HOUR (UT)   FLARE FACTOR    SKY TESTER    SUN TESTER
   12.81222248   -1.00000000   -1.00000000   -1.00000000
   12.85916710  134.43200684    1.34000003    2.53999996
   12.86222267  128.79499817    1.03999996    2.53999996
   12.86555576  123.69999695    1.11000001    2.53999996
   12.86888885  135.68499756    1.46000004    2.53999996
   12.87194443  130.61700439    1.60000002    2.51999998
   12.87888908  130.61700439    1.55999994    2.53999996
   12.88305569  129.22500610    1.30999994    2.53999996
   12.88638878  123.75499725    1.28999996    2.53999996
   12.88944435  135.12800598    1.09000003    2.53999996
   12.89194393  124.66999817    0.95999998    2.53999996
   12.89333344  135.58000183    0.86000001    2.53999996
   12.89638901  136.11700439    0.79000002    2.51999998
   12.89972210  127.05400085    0.80000001    2.53999996
   12.90305519  125.64399719    0.80000001    2.53999996
   12.90611076  129.96600342    0.83999997    2.53999996
   12.90944386  128.40499878    0.92000002    2.53999996
   12.91305542  123.28900146    1.00000000    2.53999996
   12.91611099  130.38200378    1.05999994    2.53999996
   12.92166710  130.38200378    1.21000004    2.53999996
   12.92583370  127.03199768    1.28999996    2.51999998
   12.92916679  133.80999756    1.28999996    2.51999998
   12.93249989  127.54000092    1.44000006    2.51999998
   12.93555546  125.63800049    1.58000004    2.53999996
   12.93888855  132.75399780    1.61000001    2.53999996
   12.94222260  126.93499756    1.64999998    2.51999998
   12.94527817  130.09500122    2.13000011    2.50000000
   12.94861126  127.44100189    2.32999992    2.50000000
   12.95166683  137.23500061    2.84999990    2.51999998
   12.95499992  128.38699341    3.07999992    2.50000000
   12.95833302  126.74900055    3.59999990    2.51999998
   12.95888901  133.13600159    3.59999990    2.51999998
   12.96472168  133.13600159    4.90999985    2.51999998
   12.96888828  136.47900391    4.90999985    2.51999998
   12.97194386  124.30699921    4.90999985    2.50000000
   12.97527695  124.27400208    4.90999985    2.51999998
   12.97833252  141.82600403    4.90999985    2.50000000
   12.98166656  160.90400696    4.90999985    2.36999989
   12.98500061  147.02000427    4.90999985    2.26999998
   12.98805618  145.64300537    4.90999985    2.39000010
   12.99138927  153.40299988    4.90999985    2.40000010
   12.99222279  136.61399841    4.90999985    2.40000010
   12.99499989  133.85600281    4.90999985    2.50000000
   12.99833393  133.43699646    4.90999985    2.50000000
   13.00138855  138.95300293    4.90999985    2.51999998
   13.00749969  138.95300293    4.90999985    2.44000006
   13.01166630  133.52000427    4.90999985    2.36999989
   13.01500034  138.58799744    4.90999985    2.39000010
   13.01805496  135.86000061    4.90999985    2.44000006
   13.02138901  126.79100037    4.90999985    2.57999992
   13.02444458  132.29600525    4.90999985    2.57999992
   13.02555561  132.36599731    4.90999985    2.55999994
   13.02805519  131.49800110    4.90999985    2.57999992
   13.03138828  136.83200073    4.90999985    2.55999994
   13.03444481  124.77300262    2.91000009    2.55999994
   13.03777790  136.88099670    0.55000001    2.55999994
   13.04111195  133.49400330    0.47999999    2.55999994
   13.04416752  135.24099731    0.50000000    2.53999996
   13.05027771  135.24099731    0.52999997    2.53999996
   13.05444431  123.71099854    0.56999999    2.53999996
   13.05777836  131.74400330    0.50000000    2.55999994
   13.05888939  130.45399475    0.47999999    2.55999994
   13.06111145  125.80599976    0.46000001    2.53999996
   13.06444454  129.73699951    0.44000000    2.53999996
   13.06750011  123.44799805    0.41999999    2.55999994
   13.07083321  126.89299774    0.36000001    2.55999994
   13.07416630  125.96299744    0.28000000    2.55999994
   13.07722187  128.56300354    0.28000000    2.55999994
   13.08055592  135.87399292    0.28000000    2.55999994
   13.08388901  127.37799835    0.28000000    2.55999994
   13.08694458  124.79900360    0.28000000    2.55999994
   13.09305477  124.79900360    0.28000000    2.55999994
   13.09722233  141.03399658    0.28000000    2.55999994
   13.10055637  130.77900696    0.28000000    2.55999994
   13.10361195  144.51300049    0.28000000    2.55999994
   13.10694504  134.17599487    0.28000000    2.55999994
   13.11027813  137.22300720    0.28000000    2.55999994
   13.11333370  121.73799896    0.25999999    2.55999994
   13.11666679  136.30400085    0.25999999    2.55999994
   13.11999989  137.85099792    0.25999999    2.57999992
   13.12305546  125.88200378    0.25999999    2.55999994
   13.12555599  128.35800171    0.25999999    2.55999994
   13.12666702  122.16999817    0.25999999    2.55999994
   13.13000011  126.86299896    0.25999999    2.55999994
   13.13611126  126.86299896    0.25999999    2.55999994
   13.14027786  125.12100220    0.25999999    2.55999994
   13.14333344  123.29299927    0.25999999    2.55999994
   13.14666653  133.11099243    0.25999999    2.57999992
   13.14972210  127.93699646    0.25999999    2.57999992
   13.15305519  126.88700104    0.25999999    2.55999994
   13.15638828  117.64299774    0.25999999    2.55999994
   13.15888882  118.66699982    0.25999999    2.55999994
   13.15972137  123.36000061    0.25999999    2.55999994
   13.16305542  118.70899963    0.25999999    2.55999994
   13.16638851  123.85199738    0.30000001    2.55999994
   13.16944504  128.60200500    0.75000000    2.57999992
   13.17277813  125.97299957    3.16000009    2.51999998
   13.17888927  125.97299957    4.90999985    2.48000002
   13.18305588  125.61799622    4.90999985    2.57999992
   13.18611145  131.90699768    4.90999985    2.53999996
   13.18944454  142.11900330    4.90999985    2.48000002
   13.19222260  124.88700104    4.90999985    2.39000010
   13.19305515  124.95800018    4.90999985    2.44000006
   13.19638920  125.34799957    4.90999985    2.55999994
   13.19944477  123.65000153    4.90999985    2.50000000
   13.20277786  126.61499786    4.90999985    2.57999992
   13.20611095  128.95399475    4.13999987    2.57999992
   13.20916653  120.96099854    0.76999998    2.57999992
   13.21249962  125.86199951    0.31999999    2.55999994
   13.21583271  122.25000000    0.25999999    2.57999992
   13.22166634  122.25000000    0.28000000    2.57999992
   13.22583294  126.49299622    0.28000000    2.57999992
   13.22916603  123.14399719    0.28000000    2.55999994
   13.23222160  124.24299622    0.28000000    2.55999994
   13.23555565  123.52300262    0.28000000    2.57999992
   13.23888874  124.13200378    0.28000000    2.57999992
   13.24194431  123.34300232    0.28000000    2.57999992
   13.24527836  125.38099670    0.28000000    2.57999992
   13.24833393  119.92400360    0.28000000    2.55999994
   13.25166702  126.59999847    0.28000000    2.57999992
   13.25500011  128.05400085    0.28000000    2.57999992
   13.25805569  120.68699646    0.30000001    2.57999992
   13.25888920  122.50399780    0.30000001    2.57999992
   13.26444435  122.50399780    0.30000001    2.57999992
   13.26861095  125.76699829    0.30000001    2.57999992
   13.27194405  122.76599884    0.30000001    2.57999992
   13.27499962  117.13899994    0.31999999    2.57999992
   13.27833271  115.95400238    0.36000001    2.59999990
   13.28166676  123.64499664    1.48000002    2.59999990
   13.28472233  118.25000000    1.61000001    2.50000000
   13.28805637  118.98600006    1.53999996    2.55999994
   13.29138947  119.76699829    1.39999998    2.59999990
   13.29222298  120.72799683    0.75000000    2.59999990
   13.29472256  124.19799805    0.64999998    2.59999990
   13.29805565  120.39199829    0.55000001    2.57999992
   13.30138874  118.20999908    0.41999999    2.59999990
   13.30749989  118.20999908    0.44000000    2.59999990
   13.31138897  119.53099823    0.52999997    2.59999990
   13.31472206  122.81800079    0.64999998    2.59999990
   13.31805515  117.68699646    0.75000000    2.59999990
   13.32111073  121.10399628    0.81999999    2.57999992
   13.32444477  118.55300140    0.88000000    2.59999990
   13.32555580  116.43299866    0.88000000    2.59999990
   13.32805538  122.95099640    0.88000000    2.59999990
   13.33138847  127.48999786    0.89999998    2.59999990
   13.33472157  116.69400024    0.95999998    2.59999990
   13.33777714  119.80699921    4.05999994    2.59999990
   13.34111118  115.28299713    4.90999985    2.59999990
   13.34444427  116.72000122    4.90999985    2.59999990
   13.35027790  116.72000122    4.90999985    2.59999990
   13.35444450  120.46700287    4.90999985    2.55999994
   13.35750008  122.39399719    4.90999985    2.55999994
   13.35888958  132.40199280    4.90999985    2.55999994
   13.36111164  144.67399597    4.90999985    2.40000010
   13.36444473  155.83799744    4.90999985    2.44000006
   13.36777782  136.47900391    4.90999985    2.39000010
   13.37083340  137.56500244    4.90999985    2.40000010
   13.37416649  133.50700378    4.90999985    2.48000002
   13.37722206  140.99000549    4.90999985    2.40000010
   13.38055611  139.51499939    4.90999985    2.48000002
   13.38388920  143.39399719    4.90999985    2.39000010
   13.38694477  152.83599854    4.90999985    2.36999989
   13.39305496  152.83599854    4.90999985    2.36999989
   13.39722252  143.43299866    4.90999985    2.40000010
   13.40055561  138.74499512    4.90999985    2.40000010
   13.40361118  146.23399353    4.90999985    2.44000006
   13.40694427  130.30599976    4.90999985    2.40000010
   13.40999985  117.77200317    4.90999985    2.51999998
   13.41333294  123.16699982    4.90999985    2.61999989
   13.41666698  132.20599365    4.90999985    2.59999990
   13.41972256  123.26200104    4.90999985    2.57999992
   13.42305565  116.61499786    4.44999981    2.55999994
   13.42555618  118.75099945    3.20000005    2.61999989
   13.42666721  119.89299774    2.34999990    2.61999989
   13.43000031  122.94799805    0.76999998    2.61999989
   13.43583298  122.94799805    0.56999999    2.59999990
   13.44000053  124.66999817    0.52999997    2.59999990
   13.44333363  123.06300354    0.47999999    2.61999989
   13.44638920  123.83899689    0.47999999    2.61999989
   13.44972229  122.54799652    0.47999999    2.61999989
   13.45305538  119.16899872    0.47999999    2.59999990
   13.45638847  121.03900146    0.47999999    2.61999989
   13.45888901  117.71399689    0.47999999    2.59999990
   13.45972157  123.87899780    0.47999999    2.59999990
   13.46305561  118.82299805    0.50000000    2.59999990
   13.46638870  114.76499939    0.55000001    2.59999990
   13.46944427  119.38099670    0.56999999    2.59999990
   13.47277737  121.45999908    0.58999997    2.59999990
   13.47888851  121.45999908    0.61000001    2.59999990
   13.48277760  115.27400208    0.63000000    2.59999990
   13.48611164  113.22200012    0.63000000    2.59999990
   13.48944473  118.85399628    0.63000000    2.61999989
   13.49222279  121.02100372    0.64999998    2.59999990
   13.49277782  113.43699646    0.64999998    2.59999990
   13.49611092  117.80699921    0.67000002    2.59999990
   13.49944496  121.28500366    0.69000000    2.61999989
   13.50249958  123.58999634    0.69000000    2.59999990
   13.50583363  119.97100067    0.69000000    2.59999990
   13.50888920  121.60199738    0.67000002    2.59999990
   13.51222229  121.87899780    0.67000002    2.59999990
   13.51555538  119.73699951    0.64999998    2.61999989
   13.52166653  119.73699951    0.58999997    2.61999989
   13.52583313  117.01699829    0.55000001    2.61999989
   13.52888870  122.25000000    0.51999998    2.61999989
   13.53222179  118.14600372    0.50000000    2.61999989
   13.53555584  123.41500092    0.50000000    2.61999989
   13.53861141  120.15100098    0.50000000    2.61999989
   13.54194450  118.72899628    0.51999998    2.61999989
   13.54527855  116.36699677    0.51999998    2.61999989
   13.54833412  110.23699951    0.61000001    2.61999989
   13.55166721  113.63800049    0.67000002    2.61999989
   13.55500031  114.14600372    0.75000000    2.64000010
   13.55805588  115.80599976    1.39999998    2.59999990
   13.55888939  119.52400208    1.94000006    2.57999992
   13.56444454  119.52400208    2.39000010    2.59999990
   13.56861115  121.11699677    2.86999989    2.59999990
   13.57194424  135.46299744    3.39000010    2.55999994
   13.57499981  113.12400055    4.59999990    2.55999994
   13.57833290  122.99500275    4.90999985    2.51999998
   13.58138847  124.27899933    4.90999985    2.48000002
   13.58472157  113.48899841    4.90999985    2.51999998
   13.58805561  119.81300354    4.90999985    2.55999994
   13.59111118  122.97799683    4.90999985    2.53999996
   13.59222221  132.64500427    4.90999985    2.53999996
   13.59472179  121.05899811    4.90999985    2.51999998
   13.59805489  128.38099670    4.90999985    2.51999998
   13.60138893  122.35600281    4.90999985    2.48000002
   13.60722256  122.35600281    4.90999985    2.46000004
   13.61138916  127.05599976    4.90999985    2.17000008
   13.61472225  130.75100708    4.90999985    2.21000004
   13.61805534  186.99800110    4.90999985    2.34999990
   13.62111092  128.94599915    4.90999985    2.26999998
   13.62444496  183.58099365    4.90999985    2.44000006
   13.62555599  210.11300659    4.90999985    2.39000010
   13.62805557  212.75999451    4.90999985    2.15000010
   13.63138866  189.89399719    4.90999985    1.94000006
   13.63472176  204.17999268    4.90999985    1.76999998
   13.63777733  313.41900635    4.90999985    2.00000000
   13.64111137  251.60600281    4.90999985    1.94000006
   13.64444447  130.33200073    4.90999985    1.80999994
   13.65027714  130.33200073    4.90999985    2.34999990
   13.65416622  229.40400696    4.90999985    1.91999996
   13.65749931  188.70399475    4.90999985    2.11999989
   13.65888882  139.58700562    4.90999985    2.15000010
   13.66111088  148.13600159    4.90999985    2.32999992
   13.66444397  132.46099854    4.90999985    2.46000004
   13.66777802  143.85499573    4.90999985    2.48000002
   13.67083359  135.86900330    4.90999985    2.48000002
   13.67416668  134.67500305    4.90999985    2.46000004
   13.67750072  135.35400391    4.90999985    2.44000006
   13.68055630  138.46899414    4.90999985    2.48000002
   13.68388939  135.64199829    4.90999985    2.46000004
   13.68694496  131.22799683    4.90999985    2.44000006
   13.69305515  131.22799683    4.90999985    2.40000010
   13.69722271  165.13099670    4.90999985    2.42000008
   13.70027733  138.92599487    4.90999985    2.46000004
   13.70361137  144.81300354    4.90999985    2.46000004
   13.70694447  142.45899963    4.90999985    2.44000006
   13.71000004  175.71699524    4.90999985    2.42000008
   13.71333313  147.02900696    4.90999985    2.40000010
   13.71638870  165.84899902    4.90999985    2.40000010
   13.71972179  161.78599548    4.90999985    2.42000008
   13.72305489  143.74000549    4.90999985    2.44000006
   13.72555542  170.83200073    4.90999985    2.42000008
   13.72638798  163.09199524    4.90999985    2.44000006
   13.72972202  174.13600159    4.90999985    2.44000006
   13.73583317  174.13600159    4.90999985    2.42000008
   13.74000072  172.54200745    4.90999985    2.40000010
   13.74333382  195.92900085    4.90999985    2.36999989
   13.74638939  183.06199646    4.90999985    2.39000010
   13.74972248  160.02799988    4.90999985    2.28999996
   13.75277805  149.56399536    4.90999985    2.39000010
   13.75611115  138.74600220    4.90999985    2.40000010
   13.75888920  143.55400085    4.90999985    2.42000008
   13.76000023  150.51800537    4.90999985    2.42000008
   13.76305580  154.97500610    4.90999985    2.34999990
   13.76638889  164.33099365    4.90999985    2.36999989
   13.76944447  145.32200623    4.90999985    2.23000002
   13.77277756  186.82099915    4.90999985    2.25000000
   13.77861118  186.82099915    4.90999985    2.25000000
   13.78277779  187.52000427    4.90999985    2.17000008
   13.78611183  200.20199585    4.90999985    2.13000011
   13.78944492  203.31799316    4.90999985    2.05999994
   13.79222298  185.74400330    4.90999985    2.05999994
   13.79305553  214.55900574    4.90999985    2.05999994
   13.79611111  183.43099976    4.90999985    2.11999989
   13.79944515  182.75100708    4.90999985    2.19000006
   13.80249977  208.75399780    4.90999985    2.15000010
   13.80583382  166.88600159    4.90999985    2.11999989
   13.80916691  147.30400085    4.90999985    2.23000002
   13.81222248  129.89900208    4.90999985    2.36999989
   13.81555557  138.82299805    4.90999985    2.50000000
   13.82166672  138.82299805    4.90999985    2.39000010
   13.82555580  149.24899292    4.90999985    2.28999996
   13.82888889  159.26699829    4.90999985    2.23000002
   13.83222198  165.17700195    4.90999985    2.21000004
   13.83527756  152.94900513    4.90999985    2.03999996
   13.83861065  190.18499756    4.90999985    2.21000004
   13.84194374  185.18800354    4.90999985    2.03999996
   13.84499931  188.46200562    4.90999985    2.11999989
   13.84833336  193.18299866    4.90999985    2.09999990
   13.85138893  241.73199463    4.90999985    2.13000011
   13.85472298  286.53900146    4.90999985    2.00000000
   13.85805607  138.42399597    4.90999985    2.09999990
   13.85888958  147.43899536    4.90999985    2.17000008
   13.87944412  147.43899536    4.90999985    2.53999996
   13.88361073  129.92700195    4.90999985    2.53999996
   13.88694477  130.34700012    4.90999985    2.53999996
   13.89027786  125.24500275    4.90999985    2.51999998
   13.89222240  118.86499786    4.90999985    2.53999996
   13.89388847  127.93499756    4.90999985    2.55999994
   13.89694405  132.68499756    4.90999985    2.55999994
   13.90027714  132.75700378    4.90999985    2.53999996
   13.90333271  140.32699585    4.90999985    2.50000000
   13.90666676  128.11599731    4.90999985    2.50000000
   13.90999985  138.06700134    4.90999985    2.57999992
   13.91305542  140.57899475    4.90999985    2.55999994
   13.91638851  131.69200134    4.90999985    2.46000004
   13.92222214  131.69200134    4.90999985    2.61999989
   13.92638874  129.05599976    4.80000019    2.61999989
   13.92972279  135.32499695    4.40999985    2.59999990
   13.93277836  140.78399658    4.51000023    2.48000002
   13.93611145  138.74699402    4.61999989    2.61999989
   13.93944454  140.48199463    4.51000023    2.64000010
   13.94250011  137.24800110    4.17999983    2.64000010
   13.94583321  143.61399841    4.57999992    2.61999989
   13.94916630  139.21800232    4.57999992    2.59999990
   13.95222187  140.21200562    4.53999996    2.57999992
   13.95555496  139.16999817    4.48999977    2.59999990
   13.95861053  133.63600159    4.80000019    2.59999990
   13.95916653  134.55299377    4.88999987    2.59999990
   13.96527767  134.55299377    4.90999985    2.53999996
   13.96916580  140.02999878    4.90999985    2.51999998
   13.97249985  137.56300354    4.90999985    2.48000002
   13.97583294  138.74400330    4.90999985    2.51999998
   13.97888851  132.24400330    4.90999985    2.51999998
   13.98222160  134.42900085    4.90999985    2.53999996
   13.98555565  129.49800110    4.90999985    2.51999998
   13.98861122  187.97599792    4.90999985    2.53999996
   13.99194431  134.02299500    4.90999985    2.55999994
   13.99250031  126.76799774    4.90999985    2.55999994
   13.99555588  134.22200012    4.90999985    2.55999994
   13.99888897  129.16299438    4.90999985    2.57999992
   14.00194454  128.34100342    4.90999985    2.61999989
   14.00805569  128.34100342    4.90999985    2.44000006
   14.01222229  137.97000122    4.90999985    2.46000004
   14.01527786  123.98200226    4.90999985    2.51999998
   14.01861095  135.44099426    4.90999985    2.55999994
   14.02194405  137.09500122    4.90999985    2.55999994
   14.02499962  133.31500244    4.90999985    2.55999994
   14.02583313  132.50999451    4.90999985    2.55999994
   14.02861118  135.62399292    4.90999985    2.57999992
   14.03194427  116.45899963    4.90999985    2.51999998
   14.03500080  130.30200195    4.90999985    2.53999996
   14.03833389  138.76699829    4.90999985    2.59999990
   14.04138947  120.81300354    4.90999985    2.53999996
   14.04472256  128.08399963    4.90999985    2.59999990
   14.05083370  128.08399963    4.90999985    2.59999990
   14.05500031  120.84700012    4.90999985    2.53999996
   14.05805588  146.39300537    4.90999985    2.55999994
   14.05916691  124.30599976    4.90999985    2.55999994
   14.06166649  128.02099609    4.90999985    2.55999994
   14.06500053  154.77200317    4.90999985    2.39000010
   14.06805515  148.22799683    4.90999985    2.21000004
   14.07138920  125.18399811    4.90999985    2.40000010
   14.07444477  134.08700562    4.90999985    2.57999992
   14.07777786  130.66499329    4.90999985    2.53999996
   14.08111095  132.50599670    4.90999985    2.51999998
   14.08416653  141.40600586    4.90999985    2.51999998
   14.08749962  137.66400146    4.90999985    2.46000004
   14.09361076  137.66400146    4.90999985    2.50000000
   14.09777737  135.74899292    4.90999985    2.48000002
   14.10111141  128.19099426    4.90999985    2.48000002
   14.10416698  130.33799744    4.90999985    2.50000000
   14.10750008  128.16999817    4.90999985    2.51999998
   14.11083412  127.95999908    4.90999985    2.48000002
   14.11388969  124.77700043    4.90999985    2.42000008
   14.11722279  131.11700439    4.90999985    2.48000002
   14.12027836  129.12500000    4.90999985    2.42000008
   14.12361145  140.57800293    4.90999985    2.50000000
   14.12583351  133.27600098    4.90999985    2.39000010
   14.12722206  140.11300659    4.90999985    2.32999992
   14.13055611  129.03399658    4.90999985    2.36999989
   14.13638878  129.03399658    4.90999985    2.48000002
   14.14055538  124.78700256    4.90999985    2.46000004
   14.14388847  132.67300415    4.90999985    2.46000004
   14.14722252  123.48400116    4.90999985    2.51999998
   14.15027714  128.25900269    4.90999985    2.53999996
   14.15361118  117.54799652    4.90999985    2.51999998
   14.15666676  131.40800476    4.90999985    2.53999996
   14.15916634  118.87100220    4.90999985    2.55999994
   14.16027737  121.51899719    4.90999985    2.53999996
   14.16361046  127.05599976    4.90999985    2.51999998
   14.16666698  128.20199585    4.90999985    2.46000004
   14.17000008  128.86399841    4.90999985    2.40000010
   14.17305565  129.42799377    4.90999985    2.48000002
   14.17944431  129.42799377    4.90999985    2.51999998
   14.18361092  128.19799805    4.90999985    2.48000002
   14.18666649  128.75000000    4.90999985    2.50000000
   14.19000053  125.46299744    4.90999985    2.55999994
   14.19250011  122.59300232    4.90999985    2.55999994
   14.19361115  123.64399719    4.90999985    2.51999998
   14.19694424  123.84899902    4.90999985    2.55999994
   14.19999981  124.24299622    4.90999985    2.55999994
   14.20333290  121.88200378    4.90999985    2.59999990
   14.20666695  123.79799652    4.78000021    2.59999990
   14.20972157  119.86100006    4.67999983    2.61999989
   14.21305561  121.38300323    4.65999985    2.64000010
   14.21638870  126.58699799    4.90999985    2.59999990
   14.22222137  126.58699799    4.90999985    2.53999996
   14.22638798  126.80200195    4.90999985    2.53999996
   14.22944355  137.77600098    4.90999985    2.53999996
   14.23277760  157.55200195    4.90999985    2.46000004
   14.23611164  147.42199707    4.90999985    2.46000004
   14.23916721  147.60099792    4.90999985    2.46000004
   14.24250031   23.57019997    4.90999985    2.30999994
   14.24583340   -1.00000000    4.90999985    1.64999998
   14.24888897   -1.00000000    4.90999985    1.28999996
   14.25222206   -1.00000000    4.90999985    0.89999998
   14.25527763   -1.00000000    4.90999985    1.03999996
   14.25861073   -1.00000000    4.90999985    1.28999996
   14.26500034   -1.00000000    4.90999985    1.69000006
   14.26916599  507.96600342    4.90999985    1.83000004
   14.27111053  250.89300537    4.90999985    2.00000000
   14.27111053   -1.00000000    4.90999985    1.64999998
   14.27138901   -1.00000000    4.90999985    1.28999996
   14.27138901   -1.00000000    4.90999985    0.89999998
   14.27138901   -1.00000000    4.90999985    1.03999996
   14.27138901   -1.00000000    4.90999985    1.28999996
   14.27166653  507.96600342    4.90999985    1.83000004
   14.27166653  147.42199707    4.90999985    2.46000004
   14.27166653  147.60099792    4.90999985    2.46000004
   14.27166653   23.57019997    4.90999985    2.30999994
   14.27333355  175.00000000    4.90999985    2.21000004
   14.27666664  135.99200439    4.90999985    2.51999998
   14.27999973  121.88600159    4.90999985    2.64000010
   14.28305531  134.45599365    4.90999985    2.55999994
   14.28638935  137.95599365    4.90999985    2.55999994
   14.29194450  137.95599365    4.90999985    2.32999992
   14.29611111  158.47200012    4.90999985    2.25000000
   14.29944515  182.06799316    4.90999985    2.13000011
   14.30249977  146.21400452    4.90999985    2.07999992
   14.30500031  117.63800049    4.90999985    2.17000008
   14.30611134  119.32800293    4.90999985    2.30999994
   14.30916691  136.28999329    4.90999985    2.55999994
   14.31250000  147.30799866    4.90999985    2.51999998
   14.31583309  167.78300476    4.90999985    2.25000000
   14.31888866  156.87899780    4.90999985    2.34999990
   14.32222176  130.27000427    4.90999985    2.42000008
   14.32555580  125.48000336    4.90999985    2.61999989
   14.32861137  129.46699524    4.90999985    2.61999989
   14.33472157  129.46699524    4.90999985    2.59999990
   14.33888817  122.38999939    4.30999994    2.64000010
   14.34222221  121.05300140    3.93000007    2.64000010
   14.34527779  124.46099854    3.95000005    2.64000010
   14.34861088  121.85700226    3.86999989    2.64000010
   14.35194492  119.81400299    3.82999992    2.66000009
   14.35500050  120.94400024    3.32999992    2.67000008
   14.35833359  116.59200287    3.32999992    2.66000009
   14.36166668  125.09300232    3.80999994    2.66000009
   14.36472225  114.44499969    4.90999985    2.66000009
   14.36805534  127.35800171    4.90999985    2.59999990
   14.37111092  114.27700043    4.90999985    2.59999990
   14.37166691  123.80300140    4.90999985    2.59999990
   14.37777805  123.80300140    4.90999985    2.64000010
   14.38166714  125.72699738    4.78000021    2.61999989
   14.38500023  128.68800354    4.46999979    2.61999989
   14.38833332  128.05700684    4.11999989    2.66000009
   14.39138889  127.18199921    4.00000000    2.64000010
   14.39472198  128.08799744    3.89000010    2.64000010
   14.39805508  129.34800720    3.75000000    2.64000010
   14.40111065  121.18299866    3.76999998    2.64000010
   14.40444374  122.93599701    3.84999990    2.64000010
   14.40499973  121.79399872    3.84999990    2.64000010
   14.40805531  125.95200348    3.93000007    2.64000010
   14.41138840  122.26699829    4.11999989    2.64000010
   14.41444397  118.94999695    4.26999998    2.64000010
   14.42055607  118.94999695    4.42999983    2.64000010
   14.42472267  118.90200043    4.57999992    2.66000009
   14.42777824  122.02999878    4.40999985    2.61999989
   14.43111134  128.78300476    4.11999989    2.66000009
   14.43444443  117.16699982    3.76999998    2.64000010
   14.43750000  123.19599915    3.89000010    2.66000009
   14.43833351  130.47300720    4.00000000    2.67000008
   14.44111156  120.13800049    4.78000021    2.66000009
   14.44444466  125.85199738    4.90999985    2.66000009
   14.44750023  124.39499664    4.90999985    2.64000010
   14.45083332  149.71299744    4.90999985    2.59999990
   14.45388889  240.54899597    4.90999985    2.36999989
   14.45722198  134.58700562    4.90999985    2.01999998
   14.46333313  134.58700562    4.90999985    1.55999994
   14.46749973   -1.00000000    4.90999985    1.73000002
   14.47083282   23.57019997    4.90999985    1.60000002
   14.47444439  136.15299988    4.90999985    1.73000002
   14.47749996  252.24000549    4.90999985    1.80999994
   14.48083305  177.71400452    4.90999985    2.19000006
   14.48416710  203.80599976    4.90999985    2.25000000
   14.48722267  183.66900635    4.90999985    2.32999992
   14.49055576  177.44099426    4.90999985    2.36999989
   14.49388885  185.58900452    4.90999985    2.42000008
   14.49694443  161.45899963    4.90999985    2.36999989
   14.50027752  178.64100647    4.90999985    2.40000010
   14.50611115  178.64100647    4.90999985    2.42000008
   14.51027775  223.88400269    4.90999985    2.48000002
   14.51361084  268.39999390    4.90999985    2.40000010
   14.51666641  229.70500183    4.90999985    2.11999989
   14.51999950  135.16600037    4.90999985    2.07999992
   14.52333355  378.27200317    4.90999985    1.86000001
   14.52638817  351.61999512    4.90999985    1.91999996
   14.52972221  362.07699585    4.90999985    2.05999994
   14.53305531  109.32399750    4.90999985    1.89999998
   14.53611183  289.43301392    4.90999985    1.94000006
   14.53833389  319.46701050    4.90999985    2.05999994
   14.53972244  220.81100464    4.90999985    2.03999996
   14.54305553  312.01699829    4.90999985    2.17000008
   14.54916668  312.01699829    4.90999985    2.00000000
   14.55333328  326.63101196    4.90999985    1.96000004
   14.55638885  234.09100342    4.90999985    1.94000006
   14.55972195  318.05899048    4.90999985    2.09999990
   14.56277752  262.86499023    4.90999985    2.03999996
   14.56611156  267.00000000    4.90999985    2.03999996
   14.56944466  191.46899414    4.90999985    2.03999996
   14.57166672  195.04899597    4.90999985    2.21000004
   14.57305527  200.03799438    4.90999985    2.21000004
   14.57638836  150.86099243    4.90999985    2.28999996
   14.57944393  169.60800171    4.90999985    2.30999994
   14.58277798  159.24499512    4.90999985    2.46000004
   14.58583260  135.13600159    4.90999985    2.32999992
   14.59194374  135.13600159    4.90999985    2.50000000
   14.59611034  128.51899719    4.90999985    2.53999996
   14.59916592  133.16799927    4.90999985    2.50000000
   14.60249996  130.79100037    4.90999985    2.55999994
   14.60500050  128.59599304    4.90999985    2.61999989
   14.60611153  130.75999451    4.90999985    2.61999989
   14.60944462  130.46099854    4.90999985    2.57999992
   14.61250019  133.22599792    4.90999985    2.51999998
   14.61583328  133.92799377    4.90999985    2.48000002
   14.61916637  132.30499268    4.90999985    2.44000006
   14.62222195  124.90200043    4.90999985    2.48000002
   14.62555599  131.31399536    4.90999985    2.51999998
   14.62861156  137.52000427    4.90999985    2.46000004
   14.63472176  137.52000427    4.90999985    2.51999998
   14.63888836  142.19299316    4.90999985    2.48000002
   14.64222240  145.04600525    4.90999985    2.42000008
   14.64527798  136.14700317    4.90999985    2.44000006
   14.64861107  128.88000488    4.90999985    2.51999998
   14.65194416  126.39499664    4.90999985    2.48000002
   14.65499973  137.91400146    4.90999985    2.51999998
   14.65833282  141.89300537    4.90999985    2.42000008
   14.66138840  137.72900391    4.90999985    2.40000010
   14.66472149  142.56900024    4.90999985    2.39000010
   14.66805553  162.67399597    4.90999985    2.39000010
   14.67111111  165.00000000    4.90999985    2.25000000
   14.67166710  152.65400696    4.90999985    2.25000000
   14.67750072  152.65400696    4.90999985    2.13000011
   14.68166733  164.62800598    4.90999985    2.30999994
   14.68500042  247.56399536    4.90999985    2.13000011
   14.68833351  227.44500732    4.90999985    2.05999994
   14.69138908  172.66999817    4.90999985    1.98000002
   14.69472218  137.70899963    4.90999985    2.21000004
   14.69805527  180.96099854    4.90999985    2.40000010
   14.70111084  149.77099609    4.90999985    2.42000008
   14.70444393  140.76300049    4.90999985    2.48000002
   14.70499992  144.78100586    4.90999985    2.50000000
   14.70805550  151.76699829    4.90999985    2.34999990
   14.71138859  172.41299438    4.90999985    2.25000000
   14.71444416  134.90800476    4.90999985    2.30999994
   14.72055531  134.90800476    4.90999985    2.36999989
   14.72472191  164.63200378    4.90999985    2.32999992
   14.72777748  154.60499573    4.90999985    2.26999998
   14.73111057  172.43099976    4.90999985    2.25000000
   14.73416710  283.79699707    4.90999985    2.19000006
   14.73750019  249.63299561    4.90999985    1.89999998
   14.73833370  185.69999695    4.90999985    1.78999996
   14.74111176  291.25399780    4.90999985    2.09999990
   14.74444485  231.40299988    4.90999985    2.00000000
   14.74750042  208.93499756    4.90999985    2.09999990
   14.75083351  101.02600098    4.90999985    1.78999996
   14.75416660  264.81298828    4.90999985    1.78999996
   14.75722218  185.38400269    4.90999985    2.00000000
   14.76333332  185.38400269    4.90999985    2.30999994
   14.76749992  149.42500305    4.90999985    2.32999992
   14.77055550  136.60299683    4.90999985    2.34999990
   14.77166653  135.26100159    4.90999985    2.42000008
   14.77416611  125.89099884    4.90999985    2.51999998
   14.77750015  120.45700073    4.90999985    2.57999992
   14.78055573  135.05299377    4.90999985    2.59999990
   14.78388977  125.83799744    4.90999985    2.57999992
   14.78722286  134.20799255    4.90999985    2.64000010
   14.79027843  127.81999969    4.90999985    2.57999992
   14.79361153  126.20800018    4.90999985    2.61999989
   14.79666710  141.37199402    4.90999985    2.61999989
   14.80000019  151.07499695    4.90999985    2.51999998
   14.80611134  151.07499695    4.90999985    2.46000004
   14.81027794  149.93499756    4.90999985    2.61999989
   14.81361103  246.02900696    4.90999985    2.17000008
   14.81666660  204.71800232    4.90999985    2.36999989
   14.81999969  168.32299805    4.90999985    2.13000011
   14.82333374  208.88999939    4.90999985    2.17000008
   14.82638836  222.08099365    4.90999985    2.23000002
   14.82972240  236.20500183    4.90999985    2.09999990
   14.83277798  272.42599487    4.90999985    2.05999994
   14.83611107  158.38900757    4.90999985    2.03999996
   14.83833313  133.67500305    4.90999985    2.15000010
   14.83972168  133.90600586    4.90999985    2.19000006
   14.84305477  133.96499634    4.90999985    2.44000006
   14.84888840  133.96499634    4.90999985    2.55999994
   14.85305595  139.99699402    4.90999985    2.61999989
   14.85638905  125.22000122    4.90999985    2.53999996
   14.85972214  129.50000000    4.90999985    2.51999998
   14.86277771  121.82599640    4.90999985    2.46000004
   14.86611176  125.27999878    4.90999985    2.59999990
   14.86944485  130.60400391    4.90999985    2.57999992
   14.87166691  117.88800049    4.90999985    2.51999998
   14.87305546  132.03199768    4.90999985    2.53999996
   14.89277744  120.03800201    4.90999985    2.57999992
   14.89694405  120.03800201    4.90999985    2.57999992
   14.90111065  116.38200378    4.90999985    2.59999990
   14.90416622  118.32399750    4.90999985    2.55999994
   14.90527725  120.61599731    4.90999985    2.55999994
   14.90805531  127.43000031    4.90999985    2.59999990
   14.91111088  129.72700500    4.90999985    2.59999990
   14.91444397  142.95100403    4.90999985    2.55999994
   14.91750050  126.65299988    4.90999985    2.59999990
   14.92083359  121.95800018    4.90999985    2.61999989
   14.92416668  120.43699646    4.90999985    2.66000009
   14.92722225  119.62899780    4.90999985    2.64000010
   14.93055630  129.10499573    4.90999985    2.61999989
   14.93388939  128.66799927    4.90999985    2.66000009
   14.93972206  128.66799927    4.90999985    2.61999989
   14.94388866  119.77899933    4.90999985    2.53999996
   14.94722271  122.12500000    4.90999985    2.59999990
   14.95027733  119.14499664    4.90999985    2.59999990
   14.95361137  123.29399872    4.90999985    2.55999994
   14.95666695  124.04399872    4.90999985    2.55999994
   14.96000004  120.20700073    4.90999985    2.51999998
   14.96333313  122.13099670    4.90999985    2.55999994
   14.96638870  121.24600220    4.90999985    2.55999994
   14.96972179  134.65800476    4.90999985    2.51999998
   14.97194386  125.50800323    4.90999985    2.46000004
   14.97333336  130.06199646    4.90999985    2.46000004
   14.97638798  126.36100006    4.90999985    2.42000008
   14.98249912  126.36100006    4.90999985    2.28999996
   14.98666668  129.12399292    4.90999985    2.57999992
   14.99000072  123.28600311    4.90999985    2.59999990
   14.99305534  129.91299438    4.90999985    2.59999990
   14.99638939  124.43499756    4.90999985    2.59999990
   14.99972248  127.00700378    4.90999985    2.61999989
   15.00277805  123.11599731    4.90999985    2.59999990
   15.00527763  119.00700378    4.90999985    2.61999989
   15.00666714  125.84500122    4.90999985    2.59999990
   15.00972176  125.96499634    4.90999985    2.64000010
   15.01305580  124.65299988    4.90999985    2.64000010
   15.01611137  118.50000000    4.90999985    2.64000010
   15.01944447  125.27999878    4.90999985    2.64000010
   15.02555561  125.27999878    4.90999985    2.64000010
   15.02944374  126.31700134    4.90999985    2.61999989
   15.03277779  121.21600342    4.90999985    2.61999989
   15.03611183  121.25299835    4.90999985    2.66000009
   15.03861141  126.48300171    4.90999985    2.64000010
   15.03972244  130.46299744    4.90999985    2.61999989
   15.04277802  128.11700439    4.90999985    2.55999994
   15.04611111  130.34199524    4.90999985    2.57999992
   15.04916668  132.77799988    4.90999985    2.55999994
   15.05249977  127.49199677    4.90999985    2.51999998
   15.05583382  136.97099304    4.90999985    2.51999998
   15.05888939  139.81399536    4.90999985    2.44000006
   15.06222248  128.49699402    4.90999985    2.36999989
   15.06833363  128.49699402    4.90999985    2.44000006
   15.07250023  126.94599915    4.90999985    2.48000002
   15.07555580  121.94899750    4.90999985    2.50000000
   15.07888889  127.40499878    4.90999985    2.50000000
   15.08222198  116.88899994    4.90999985    2.55999994
   15.08527756  119.69499969    4.90999985    2.57999992
   15.08861065  119.32499695    4.90999985    2.59999990
   15.09166622  138.27400208    4.90999985    2.51999998
   15.09499931  121.71199799    4.90999985    2.48000002
   15.09833336  168.54299927    4.90999985    2.55999994
   15.10138893  125.37599945    4.90999985    2.28999996
   15.10472298  121.04900360    4.90999985    2.42000008
   15.10527802  118.50399780    4.90999985    2.51999998
   15.11111164  118.50399780    4.90999985    2.64000010
   15.11527824  128.12800598    4.90999985    2.61999989
   15.11861134  118.42299652    4.90999985    2.55999994
   15.12166691  126.88999939    4.90999985    2.53999996
   15.12500000  123.14299774    4.90999985    2.53999996
   15.12805557  124.25000000    4.90999985    2.57999992
   15.13138866  125.83499908    4.90999985    2.61999989
   15.13472176  129.42100525    4.90999985    2.55999994
   15.13777733  132.03100586    4.90999985    2.46000004
   15.13861084  131.54100037    4.90999985    2.46000004
   15.24000072   -1.00000000   -1.00000000   -1.00000000
   15.33249950   -1.00000000   -1.00000000   -1.00000000
   15.44555569   -1.00000000   -1.00000000   -1.00000000
   15.54833412   -1.00000000   -1.00000000   -1.00000000
   15.58638859  292.66500854    4.90999985    2.25000000
   15.58972168  370.25201416    4.90999985    2.15000010
   15.59277725  353.67300415    4.90999985    2.15000010
   15.59611034  230.95799255    4.90999985    2.13000011
   15.59916592  206.71299744    4.90999985    2.19000006
   15.60249996  153.55900574    4.90999985    2.32999992
   15.60666752  153.55900574    4.90999985    2.39000010
   15.61083412  179.43800354    4.90999985    2.32999992
   15.61388969  198.46099854    4.90999985    2.19000006
   15.61722279  254.09700012    4.90999985    2.21000004
   15.61972237  347.09899902    4.90999985    2.01999998
   15.62055588  235.46600342    4.90999985    2.01999998
   15.62388897  310.22698975    4.90999985    2.23000002
   15.62722206  242.74699402    4.90999985    2.00000000
   15.63027763  273.02200317    4.90999985    2.11999989
   15.63361073  224.81799316    4.90999985    1.98000002
   15.63694477  298.81900024    4.90999985    2.03999996
   15.64000034  327.68301392    4.90999985    2.01999998
   15.64333344  205.02299500    4.90999985    1.89999998
   15.64944458  205.02299500    4.90999985    2.25000000
   15.65361118  168.37699890    4.90999985    2.26999998
   15.65694427  203.86799622    4.90999985    2.21000004
   15.65999985  173.35499573    4.90999985    2.17000008
   15.66333294  178.17300415    4.90999985    2.15000010
   15.66666698  139.99800110    4.90999985    2.32999992
   15.66972256  151.09599304    4.90999985    2.44000006
   15.67305565  148.19999695    4.90999985    2.44000006
   15.67611122  139.84700012    4.90999985    2.48000002
   15.67944431  128.00100708    4.90999985    2.46000004
   15.68277836  160.32400513    4.90999985    2.55999994
   15.68583298  124.28900146    4.90999985    2.55999994
   15.68638897  126.67700195    4.90999985    2.53999996
   15.69222260  126.67700195    4.90999985    2.42000008
   15.69638920  132.84199524    4.90999985    2.48000002
   15.69972229  141.17900085    4.90999985    2.46000004
   15.70277786  141.87100220    4.90999985    2.48000002
   15.70611095  131.47399902    4.90999985    2.53999996
   15.70944405  133.12100220    4.90999985    2.57999992
   15.71249962  134.10699463    4.90999985    2.57999992
   15.71583271  136.26800537    4.90999985    2.50000000
   15.71916580  138.27499390    4.90999985    2.46000004
   15.71972179  142.62699890    4.90999985    2.48000002
   15.72277737  133.18600464    4.90999985    2.53999996
   15.72583294  143.48599243    4.90999985    2.55999994
   15.72916603  125.14600372    4.90999985    2.55999994
   15.73527813  125.14600372    4.90999985    2.59999990
   15.73916721  130.78900146    4.90999985    2.61999989
   15.74250031  112.94400024    4.90999985    2.61999989
   15.74583340  124.77600098    4.90999985    2.64000010
   15.74888897  134.45500183    4.90999985    2.61999989
   15.75222206  130.15499878    4.90999985    2.44000006
   15.75305557  129.21200562    4.90999985    2.46000004
   15.75583363  122.44799805    4.90999985    2.46000004
   15.75888920  136.20100403    4.90999985    2.44000006
   15.76222229  122.20800018    4.90999985    2.44000006
   15.76555538  141.83999634    4.90999985    2.50000000
   15.76861095  150.47099304    4.90999985    2.40000010
   15.77194405  158.32299805    4.90999985    2.44000006
   15.77805519  158.32299805    4.90999985    2.36999989
   15.78222179  149.79600525    4.90999985    2.42000008
   15.78527832  129.09899902    4.90999985    2.40000010
   15.78638935  146.73399353    4.90999985    2.42000008
   15.78888893  127.02600098    4.90999985    2.40000010
   15.79194450  127.31400299    4.90999985    2.40000010
   15.79527855  129.28599548    4.90999985    2.44000006
   15.79861164  123.41600037    4.90999985    2.50000000
   15.80166721  125.16400146    4.90999985    2.51999998
   15.80500031  124.98200226    4.90999985    2.57999992
   15.80805588  118.25299835    4.90999985    2.53999996
   15.81138897  120.16400146    4.90999985    2.57999992
   15.81472206  127.61599731    4.90999985    2.61999989
   15.82083321  127.61599731    4.90999985    2.55999994
   15.82499981  115.36900330    4.90999985    2.55999994
   15.82805538  115.25599670    4.90999985    2.59999990
   15.83138847  126.88099670    4.90999985    2.59999990
   15.83472157  125.94999695    4.90999985    2.55999994
   15.83777714  129.93499756    4.90999985    2.55999994
   15.84111118  131.00500488    4.90999985    2.61999989
   15.84444427  128.44500732    4.90999985    2.61999989
   15.84749985  121.82599640    4.90999985    2.61999989
   15.85083389  121.62300110    4.90999985    2.64000010
   15.85305595  128.36300659    4.90999985    2.66000009
   15.85444450  125.23300171    4.90999985    2.64000010
   15.85750008  132.93499756    4.90999985    2.64000010
   15.86361122  132.93499756    4.90999985    2.67000008
   15.86777782  116.78600311    4.90999985    2.67000008
   15.87111092  114.54000092    4.90999985    2.64000010
   15.87416649  122.20099640    4.90999985    2.64000010
   15.87750053  116.47599792    4.90999985    2.67000008
   15.88083363  119.40200043    4.90999985    2.66000009
   15.88388920  116.66699982    4.90999985    2.67000008
   15.88638878  114.81900024    4.90999985    2.67000008
   15.88749981  122.91000366    4.90999985    2.67000008
   15.89055538  139.01300049    4.90999985    2.67000008
   15.89388847  138.83000183    4.90999985    2.64000010
   15.89722252  149.42599487    4.90999985    2.67000008
   15.90027714  124.36100006    4.90999985    2.66000009
   15.90638828  124.36100006    4.90999985    2.57999992
   15.91055489  155.98699951    4.90999985    2.57999992
   15.91388893  127.31700134    4.90999985    2.61999989
   15.91722298  142.65899658    4.90999985    2.64000010
   15.91972256  125.05699921    4.90999985    2.64000010
   15.92083359  117.48200226    4.90999985    2.64000010
   15.92416668  114.83200073    4.90999985    2.67000008
   15.92722225  122.04299927    4.90999985    2.69000006
   15.93055630  135.33799744    4.90999985    2.67000008
   15.93361092  116.75000000    4.90999985    2.67000008
   15.93694496  121.84999847    4.90999985    2.67000008
   15.94027805  123.89499664    4.90999985    2.67000008
   15.94333363  118.90100098    4.90999985    2.69000006
   15.94944477  118.90100098    4.90999985    2.69000006
   15.95361137  122.52999878    4.90999985    2.69000006
   15.95666695  132.38800049    4.90999985    2.69000006
   15.96000004  129.99299622    4.90999985    2.69000006
   15.96333313  119.54900360    4.90999985    2.69000006
   15.96638870  122.95800018    4.90999985    2.69000006
   15.96972179  120.60399628    4.90999985    2.69000006
   15.97277737  120.65899658    4.90999985    2.66000009
   15.97611046  119.53099823    4.90999985    2.67000008
   15.97944355  135.23399353    4.90999985    2.69000006
   15.98249912  119.59500122    4.90999985    2.71000004
   15.98583317  120.15399933    4.90999985    2.71000004
   15.98638916  124.60500336    4.90999985    2.71000004
   15.99222279  124.60500336    4.90999985    2.71000004
   15.99638939  113.99199677    4.88999987    2.71000004
   15.99972248  114.88999939    4.76000023    2.71000004
   16.00277710  120.17299652    4.90999985    2.71000004
   16.00611115  111.60700226    4.90999985    2.69000006
   16.00944519  121.94400024    4.90999985    2.69000006
   16.01250076  122.69400024    4.90999985    2.48000002
   16.01583290  127.44400024    4.90999985    2.55999994
   16.01916695  128.77400208    4.90999985    2.67000008
   16.01972198  127.65799713    4.90999985    2.67000008
   16.02277756  125.41200256    4.90999985    2.69000006
   16.02583313  128.36399841    3.57999992    2.71000004
   16.02916718  114.14600372    2.84999990    2.71000004
   16.03499985  114.14600372    2.86999989    2.73000002
   16.03916550  130.60400391    3.03999996    2.73000002
   16.04249954  119.94599915    3.41000009    2.71000004
   16.04555511  125.33799744    3.03999996    2.73000002
   16.04888916  123.18000031    3.43000007    2.73000002
   16.05194283  120.23999786    3.18000007    2.73000002
   16.05305481  130.55599976    3.21000004    2.73000002
   16.05583191  121.10700226    3.32999992    2.73000002
   16.05888748  142.12199402    3.93000007    2.71000004
   16.06222153  130.82600403    4.80999994    2.69000006
   16.06555557  138.48100281    4.90999985    2.69000006
   16.06861115  130.85000610    4.90999985    2.69000006
   16.07194519  149.49699402    4.90999985    2.69000006
   16.07777786  149.49699402    4.90999985    2.44000006
   16.08194542  173.00300598    4.90999985    2.44000006
   16.08527756  202.86000061    4.90999985    2.40000010
   16.08638954  191.11599731    4.90999985    2.28999996
   16.08889008  219.60699463    4.90999985    2.21000004
   16.09194565  318.30700684    4.90999985    2.21000004
   16.09527779  176.59599304    4.90999985    2.05999994
   16.09861183  139.65800476    4.90999985    2.00000000
   16.10166740  188.44000244    4.90999985    2.01999998
   16.10499954  114.81400299    4.90999985    1.94000006
   16.10833359   98.67520142    4.90999985    2.03999996
   16.11138916   87.59590149    4.90999985    1.96000004
   16.11472321   -1.00000000    4.90999985    1.69000006
   16.12083435   -1.00000000    4.90999985    1.44000006
   16.12500000   -1.00000000    4.90999985    1.69000006
   16.12805557   23.57019997    4.90999985    1.55999994
   16.13138962  147.98599243    4.90999985    1.85000002
   16.13444519   -1.00000000    4.90999985    1.51999998
   16.13777733   -1.00000000    4.90999985    1.46000004
   16.14111137   -1.00000000    4.90999985    1.36000001
   16.14416695   -1.00000000   -1.00000000   -1.00000000
   16.14749908   -1.00000000    4.90999985    1.91999996
   16.15083313  217.99200439    4.90999985    1.88000000
   16.15305519  160.02299500    4.90999985    2.21000004
   16.15444374  144.19200134    4.90999985    2.23000002
   16.15749931  132.38699341    4.90999985    2.40000010
   16.16361046  132.38699341    4.90999985    2.55999994
   16.16777802  127.26599884    4.90999985    2.67000008
   16.17083359  127.40399933    4.90999985    2.71000004
   16.17416573  122.60399628    3.75000000    2.73000002
   16.17749977  127.45999908    3.68000007    2.71000004
   16.18083191  117.01699829    3.76999998    2.71000004
   16.18388748  122.11699677    3.70000005    2.71000004
   16.18638802  126.03500366    3.70000005    2.71000004
   16.18750000  130.05599976    3.73000002    2.71000004
   16.19083214  129.70700073    3.76999998    2.71000004
   16.19388771  125.58000183    3.86999989    2.71000004
   16.19722176  119.11900330    4.73999977    2.69000006
   16.20027924  122.80500031    4.90999985    2.67000008
   16.20639038  122.80500031    4.65999985    2.71000004
   16.21055603  127.38700104    4.00000000    2.71000004
   16.21389008  130.33799744    4.90999985    2.73000002
   16.21694565  154.63000488    4.90999985    2.59999990
   16.21972275  188.26199341    4.90999985    2.42000008
   16.22055626  236.20599365    4.90999985    2.39000010
   16.22389030  380.77801514    4.90999985    2.09999990
   16.22694588  100.00499725    4.90999985    2.19000006
   16.23027802   96.91410065    4.90999985    1.98000002
   16.23333359   76.11550140    4.90999985    1.98000002
   16.23666763  122.24700165    4.90999985    1.85000002
   16.23999977  189.03599548    4.90999985    1.86000001
   16.24305534  291.65399170    4.90999985    2.23000002
   16.24916649  291.65399170    4.90999985    2.28999996
   16.25333405  133.93499756    4.90999985    2.30999994
   16.25666618  124.85399628    4.90999985    2.76999998
   16.25972176  136.40499878    4.90999985    2.69000006
   16.26305580  119.30200195    4.90999985    2.67000008
   16.26638794  122.96900177    4.90999985    2.67000008
   16.26944351  133.97300720    4.90999985    2.71000004
   16.27277756  126.25700378    4.84999990    2.71000004
   16.27611160  127.50199890    4.84999990    2.69000006
   16.27916718  137.13099670    4.90999985    2.67000008
   16.28249931  144.58700562    4.90999985    2.64000010
   16.28555489  140.01100159    4.90999985    2.57999992
   16.28638840  133.66200256    4.90999985    2.57999992
   16.29222107  133.66200256    4.90999985    2.71000004
   16.29611015  162.69900513    4.90999985    2.67000008
   16.29944420  130.96400452    4.90999985    2.51999998
   16.30277634  133.23199463    4.90999985    2.61999989
   16.30583191  139.96000671    4.90999985    2.53999996
   16.30916595  146.34899902    4.90999985    2.46000004
   16.31250000  139.99899292    4.90999985    2.40000010
   16.31555557  136.37399292    4.90999985    2.48000002
   16.31888962  140.69400024    4.90999985    2.48000002
   16.31972313  136.13200378    4.90999985    2.42000008
   16.32250023  136.26699829    4.90999985    2.48000002
   16.32583427  152.26899719    4.90999985    2.57999992
   16.32888985  135.12100220    4.90999985    2.50000000
   16.33500099  135.12100220    4.90999985    2.48000002
   16.33916664  143.71699524    4.90999985    2.46000004
   16.34250069  134.66799927    4.90999985    2.44000006
   16.34555626  146.90800476    4.90999985    2.48000002
   16.34889030  155.44599915    4.90999985    2.44000006
   16.35222244  167.73800659    4.90999985    2.28999996
   16.35305595  156.41099548    4.90999985    2.23000002
   16.35583305  180.41700745    4.90999985    2.26999998
   16.35916710  228.27799988    4.90999985    2.34999990
   16.36222267  173.18099976    4.90999985    2.15000010
   16.36555672  138.87500000    4.90999985    2.05999994
   16.36861038  156.67500305    4.90999985    2.21000004
   16.37194443  150.02400208    4.90999985    2.36999989
   16.37777710  150.02400208    4.90999985    2.51999998
   16.38194466  142.68800354    4.90999985    2.51999998
   16.38527679  147.26300049    4.90999985    2.40000010
   16.38638878  129.66099548    4.90999985    2.32999992
   16.38888931  145.67799377    4.90999985    2.48000002
   16.39222145  142.11900330    4.90999985    2.42000008
   16.39527702  168.12399292    4.90999985    2.40000010
   16.39861107  157.87399292    4.90999985    2.36999989
   16.40166664  163.37600708    4.90999985    2.42000008
   16.40499878  153.65400696    4.90999985    2.57999992
   16.40833282  136.85499573    4.90999985    2.55999994
   16.41138840  140.73300171    4.90999985    2.57999992
   16.41472244  143.05299377    4.90999985    2.64000010
   16.42055511  143.05299377    4.90999985    2.59999990
   16.42472076  137.59700012    4.90999985    2.64000010
   16.42805481  144.76899719    4.90999985    2.66000009
   16.43111038  157.56399536    4.90999985    2.55999994
   16.43444443  157.13000488    4.90999985    2.50000000
   16.43777657  137.42599487    4.90999985    2.36999989
   16.44083214  137.84899902    4.90999985    2.39000010
   16.44416618  154.55499268    4.90999985    2.51999998
   16.44749832  167.98199463    4.90999985    2.44000006
   16.45055580  147.70599365    4.90999985    2.30999994
   16.45305634  140.25500488    4.90999985    2.21000004
   16.45416832  140.74099731    4.90999985    2.32999992
   16.45750046  134.26100159    4.90999985    2.48000002
   16.46361160  134.26100159    4.90999985    2.66000009
   16.46777916  143.01199341    4.90999985    2.64000010
   16.47083473  141.65299988    4.90999985    2.64000010
   16.47416687  135.50999451    4.90999985    2.71000004
   16.47722244  137.81300354    4.90999985    2.67000008
   16.48055649  141.55099487    4.90999985    2.71000004
   16.48388863  135.08099365    4.90999985    2.67000008
   16.48638916  143.86700439    4.90999985    2.67000008
   16.48750114  132.91200256    4.90999985    2.67000008
   16.49083328  139.15899658    4.90999985    2.67000008
   16.49388885  129.43699646    4.88999987    2.71000004
   16.49722290  130.29600525    4.09999990    2.71000004
   16.50055504  130.02400208    3.61999989    2.73000002
   16.50638962  130.02400208    2.89000010    2.73000002
   16.51055527  123.81600189    2.59999990    2.73000002
   16.51361084  126.86499786    2.44000006    2.75000000
   16.51694489  141.24899292    2.53999996    2.75000000
   16.51972198  134.61900330    2.53999996    2.73000002
   16.52055550  130.62899780    2.55999994    2.75000000
   16.52388954  133.11399841    2.57999992    2.75000000
   16.52694511  128.52099609    2.67000008    2.73000002
   16.53027725  136.45799255    2.91000009    2.73000002
   16.53361130  129.08000183    3.05999994    2.73000002
   16.53666687  133.87500000    3.45000005    2.71000004
   16.53999901  138.80799866    3.55999994    2.71000004
   16.54305458  137.15899658    3.25000000    2.75000000
   16.54916573  137.15899658    4.03999996    2.73000002
   16.55333328  145.30799866    4.90999985    2.69000006
   16.55666542  175.98399353    4.90999985    2.48000002
   16.55972099  142.51400757    4.90999985    2.28999996
   16.56305504   -1.00000000    4.90999985    1.60000002
   16.56611061  294.12701416    4.90999985    1.69000006
   16.56944466   -1.00000000    4.90999985    1.51999998
   16.57277870  150.06399536    4.90999985    1.71000004
   16.57583427  175.48500061    4.90999985    2.48000002
   16.57916832  138.88499451    4.90999985    2.73000002
   16.58250046  142.43499756    4.90999985    2.75000000
   16.58555603  132.15699768    3.01999998    2.73000002
   16.58638954  142.39700317    3.03999996    2.73000002
   16.60722351  142.39700317    2.96000004    2.71000004
   16.61138916  138.02299500    3.01999998    2.73000002
   16.61444473  133.25599670    3.07999992    2.73000002
   16.61777878  135.97099304    3.16000009    2.73000002
   16.62000084  131.48300171    3.20000005    2.73000002
   16.62138939  134.51800537    3.21000004    2.71000004
   16.62472153  138.25999451    3.25000000    2.71000004
   16.62777710  135.31599426    3.21000004    2.73000002
   16.63111115  129.35400391    3.20000005    2.73000002
   16.63444519  132.36399841    3.18000007    2.73000002
   16.63750076  126.43499756    3.00000000    2.73000002
   16.64083290  122.28399658    3.01999998    2.73000002
   16.64416695  118.55000305    3.09999990    2.73000002
   16.64999962  118.55000305    3.07999992    2.73000002
   16.65416718  131.24099731    2.98000002    2.73000002
   16.65722275  126.01300049    3.07999992    2.73000002
   16.66055489  129.94400024    3.48000002    2.73000002
   16.66388893  132.84700012    4.73999977    2.71000004
   16.66694450  122.59100342    4.90999985    2.66000009
   16.67027664  125.12100220    4.48999977    2.75000000
   16.67361069  129.40299988    3.53999996    2.73000002
   16.67666626  127.79599762    3.34999990    2.73000002
   16.68000031  124.29299927    2.98000002    2.75000000
   16.68305397  118.94100189    2.84999990    2.75000000
   16.68638802  117.35299683    3.16000009    2.75000000
   16.68694305  118.40000153    3.16000009    2.75000000
   16.69277763  118.40000153    3.09999990    2.71000004
   16.69694328  133.40299988    3.07999992    2.73000002
   16.70027924  129.79499817    3.11999989    2.73000002
   16.70333481  131.21400452    3.25000000    2.73000002
   16.70666695  131.62300110    3.41000009    2.73000002
   16.70972252  130.41999817    3.41000009    2.73000002
   16.71305656  121.77999878    3.50000000    2.73000002
   16.71638870  128.09700012    3.50000000    2.73000002
   16.71944427  139.12699890    4.90999985    2.78999996
   16.72027779  209.64300537    4.90999985    2.78999996
   16.72333336  206.18400574    4.90999985    2.03999996
   16.72638893  192.60000610    4.90999985    2.09999990
   16.72972298  154.18699646    4.90999985    2.25000000
   16.73555565  154.18699646    4.90999985    2.78999996
   16.73972321  130.61900330    3.20000005    2.73000002
   16.74305534  118.87200165    3.66000009    2.71000004
   16.74611092  129.70199585    2.94000006    2.73000002
   16.74944496  135.39999390    2.64000010    2.75000000
   16.75277710  124.41000366    2.76999998    2.73000002
   16.75361061  131.71200562    2.76999998    2.73000002
   16.75638962  129.62800598    2.75000000    2.73000002
   16.75944519  126.34700012    2.78999996    2.73000002
   16.76277733  129.03900146    2.71000004    2.73000002
   16.76583290  127.12899780    2.73000002    2.73000002
   16.76916695  126.74600220    2.66000009    2.73000002
   16.77249908  123.22200012    2.57999992    2.73000002
   16.77861023  123.22200012    2.73000002    2.73000002
   16.78249931  117.89299774    2.89000010    2.73000002
   16.78583336  118.32700348    2.78999996    2.73000002
   16.78694344  126.99700165    2.75000000    2.73000002
   16.78944397  122.46700287    2.67000008    2.73000002
   16.79249954  126.81999969    2.64000010    2.73000002
   16.79583359  126.92900085    2.66000009    2.73000002
   16.79888916  125.39099884    2.73000002    2.73000002
   16.80222130  126.23300171    2.73000002    2.73000002
   16.80555534  122.18499756    2.71000004    2.73000002
   16.80861092  117.46800232    2.73000002    2.73000002
   16.81194305  118.91200256    3.28999996    2.71000004
   16.81527710  127.76799774    3.59999990    2.71000004
   16.82139015  127.76799774    3.97000003    2.71000004
   16.82555580  118.34100342    3.70000005    2.71000004
   16.82861137  115.42800140    3.80999994    2.71000004
   16.83194542  114.52500153    3.61999989    2.71000004
   16.83527756  127.21600342    3.51999998    2.73000002
   16.83833313  122.90299988    3.61999989    2.71000004
   16.84166718  125.24800110    3.93000007    2.71000004
   16.84472275  119.53700256    4.15999985    2.71000004
   16.84805679  127.11199951    4.90999985    2.73000002
   16.85138893  184.05900574    4.90999985    2.59999990
   16.85361099  125.77999878    4.90999985    2.21000004
   16.85499954  154.55799866    4.90999985    2.25000000
   16.85805511  181.60800171    4.90999985    2.42000008
   16.86416626  181.60800171    4.90999985    2.40000010
   16.86833382  153.16299438    4.90999985    2.17000008
   16.87166595  124.43699646    4.90999985    2.42000008
   16.87472153  118.78199768    4.90999985    2.73000002
   16.87805557  114.50599670    3.82999992    2.73000002
   16.88111115  118.84600067    2.67000008    2.73000002
   16.88444519  116.11000061    2.75000000    2.75000000
   16.88694382  119.05500031    2.84999990    2.75000000
   16.88805580  126.10900116    2.91000009    2.73000002
   16.89111137  121.39199829    3.28999996    2.73000002
   16.89444351  125.54799652    4.40999985    2.73000002
   16.89777756  134.87699890    4.90999985    2.66000009
   16.90083313  127.33200073    4.90999985    2.59999990
   16.90694427  127.33200073    4.90999985    2.69000006
   16.91110992  120.00900269    4.90999985    2.57999992
   16.91444397  120.10600281    4.90999985    2.71000004
   16.91749954  120.11699677    2.89000010    2.75000000
   16.92027664  115.59100342    2.93000007    2.71000004
   16.92138863  111.83499908    3.05999994    2.73000002
   16.92444420  118.72299957    3.00000000    2.73000002
   16.92777634  121.14199829    2.91000009    2.71000004
   16.93083191  120.32399750    2.94000006    2.73000002
   16.93416595  120.78700256    4.90999985    2.57999992
   16.93750000  125.85299683    4.90999985    2.69000006
   16.94055557  130.31100464    4.90999985    2.64000010
   16.94388771  125.94899750    4.90999985    2.67000008
   16.95000076  125.94899750    3.05999994    2.73000002
   16.95388985  123.01100159    2.94000006    2.73000002
   16.95722389  119.68800354    3.16000009    2.73000002
   16.96055603  120.50900269    2.84999990    2.75000000
   16.96361160  112.82499695    2.73000002    2.75000000
   16.96694565  118.83699799    2.67000008    2.75000000
   16.97027779  120.48899841    2.66000009    2.75000000
   16.97333336  122.02600098    3.21000004    2.69000006
   16.97666740  117.08499908    3.09999990    2.73000002
   16.97972298  125.99199677    2.91000009    2.73000002
   16.98305511  123.98100281    3.45000005    2.73000002
   16.98638916  121.35700226    3.01999998    2.71000004
   16.98694420  125.64600372    3.00000000    2.73000002
   16.99277878  125.64600372    2.86999989    2.73000002
   16.99694443  118.09999847    2.89000010    2.75000000
   17.00000000  121.38899994    2.71000004    2.75000000
   17.00333405  117.60800171    2.66000009    2.75000000
   17.00666618  114.71299744    2.53999996    2.75000000
   17.00972176  116.16100311    2.40000010    2.75000000
   17.01305580  114.89800262    2.26999998    2.75000000
   17.01611137  117.12200165    2.15000010    2.75000000
   17.01944351  118.94200134    2.11999989    2.75000000
   17.02027702  123.39099884    2.15000010    2.75000000
   17.02305603  122.68699646    2.32999992    2.75000000
   17.02611160  119.90499878    2.42000008    2.75000000
   17.02944374  121.50299835    2.44000006    2.75000000
   17.03555489  121.50299835    2.46000004    2.75000000
   17.03972244  117.65000153    2.59999990    2.75000000
   17.04305458  117.48100281    2.67000008    2.75000000
   17.04611015  117.86799622    2.61999989    2.75000000
   17.04944420  110.76999664    2.55999994    2.73000002
   17.05249977  117.83799744    2.53999996    2.75000000
   17.05360985  119.02899933    2.57999992    2.75000000
   17.05638885  109.47000122    2.67000008    2.73000002
   17.05944443  114.51000214    3.34999990    2.73000002
   17.06277657  113.28399658    3.18000007    2.75000000
   17.06611061  117.29000092    3.34999990    2.73000002
   17.06916809  112.01799774    3.50000000    2.71000004
   17.07250023  115.07900238    3.70000005    2.73000002
   17.07833481  115.07900238    4.44999981    2.69000006
   17.08250046  115.70600128    4.28999996    2.71000004
   17.08583450  117.66899872    4.03999996    2.71000004
   17.08694458  117.61100006    3.97000003    2.71000004
   17.08944511  117.62100220    3.66000009    2.73000002
   17.09250069  116.01300049    3.39000010    2.73000002
   17.09583473  116.91999817    3.57999992    2.73000002
   17.09916687  120.31500244    3.70000005    2.73000002
   17.10222244  114.51100159    3.76999998    2.71000004
   17.10555649  109.52700043    3.73000002    2.71000004
   17.10861206  118.52500153    3.75000000    2.71000004
   17.11194420  119.59999847    3.78999996    2.71000004
   17.11527824  118.26399994    3.72000003    2.71000004
   17.12138939  118.26399994    3.68000007    2.71000004
   17.12527847  117.32599640    3.70000005    2.71000004
   17.12861061  113.32700348    3.66000009    2.71000004
   17.13194466  117.38500214    3.73000002    2.73000002
   17.13500023  112.33799744    3.66000009    2.71000004
   17.13833237  114.16899872    3.66000009    2.73000002
   17.14166641  112.99199677    3.73000002    2.73000002
   17.14472198  118.44000244    4.09999990    2.71000004
   17.14805603  112.88099670    3.66000009    2.73000002
   17.15111160  116.93900299    3.59999990    2.71000004
   17.15361023  117.81700134    4.07999992    2.71000004
   17.15499878  110.45700073    4.26999998    2.71000004
   17.15805435  119.20099640    4.34999990    2.71000004
   17.16416550  119.20099640    4.46999979    2.71000004
   17.16833305  113.55100250    4.78000021    2.71000004
   17.17138863  113.92099762    4.90999985    2.71000004
   17.17472076  113.90499878    4.55999994    2.71000004
   17.17805481  119.85600281    4.23999977    2.69000006
   17.18111038  115.64099884    3.99000001    2.71000004
   17.18444443  113.66799927    3.45000005    2.71000004
   17.18694305  123.13099670    3.34999990    2.71000004
   17.18805504  118.34100342    3.32999992    2.73000002
   17.19138718  108.88899994    3.05999994    2.75000000
   17.19444275  109.34799957    3.30999994    2.75000000
   17.19777679  119.37100220    3.97000003    2.71000004
   17.20111275  119.77899933    4.51000023    2.71000004
   17.20694542  119.77899933    4.90999985    2.69000006
   17.21111107  118.75099945    4.23999977    2.73000002
   17.21444511  118.44999695    3.03999996    2.71000004
   17.21750069  114.28500366    2.78999996    2.75000000
   17.22027779  114.82599640    2.75000000    2.73000002
   17.22111130  118.54499817    2.75000000    2.73000002
   17.22416687  113.38200378    2.73000002    2.75000000
   17.22750092  118.44899750    3.00000000    2.75000000
   17.23083305  118.67500305    3.01999998    2.75000000
   17.23388863  116.80899811    3.05999994    2.73000002
   17.23722267  113.25000000    3.32999992    2.73000002
   17.24055672  118.77600098    3.32999992    2.75000000
   17.24361229  118.73799896    3.43000007    2.73000002
   17.24972153  118.73799896    4.90999985    2.66000009
   17.25388908  118.86900330    4.90999985    2.71000004
   17.25722313  125.43299866    4.51000023    2.69000006
   17.26027870  122.96600342    4.30999994    2.71000004
   17.26361084  120.89700317    4.26000023    2.71000004
   17.26694489  123.97399902    4.42999983    2.69000006
   17.27000046  115.04900360    3.68000007    2.73000002
   17.27333260  118.33399963    3.01999998    2.73000002
   17.27666664  113.04399872    3.01999998    2.75000000
   17.27972221  114.16799927    3.43000007    2.73000002
   17.28305435  114.23500061    3.80999994    2.73000002
   17.28638840  118.85099792    3.05999994    2.75000000
   17.28694344  119.83399963    2.80999994    2.75000000
   17.29277802  119.83399963    2.34999990    2.75000000
   17.29666710  117.02899933    2.67000008    2.75000000
   17.29999924  117.76799774    3.97000003    2.75000000
   17.30333328  119.67500305    4.90999985    2.64000010
   17.30638885  114.26100159    4.90999985    2.66000009
   17.30972099  117.39099884    4.90999985    2.69000006
   17.31305504  113.48300171    4.69999981    2.73000002
   17.31611061  117.97799683    4.69999981    2.73000002
   17.31944466  125.23500061    4.90999985    2.67000008
   17.32027817  126.53700256    4.90999985    2.64000010
   17.32305717  109.42299652    4.90999985    2.46000004
   17.32611275  116.00099945    4.90999985    2.55999994
   17.32944489  120.99099731    4.90999985    2.69000006
   17.33555603  120.99099731    4.57999992    2.71000004
   17.33972359  117.22299957    4.23999977    2.73000002
   17.34277916  119.76699829    4.55999994    2.71000004
   17.34611130  119.34100342    4.59999990    2.71000004
   17.34944534  123.43699646    4.78000021    2.71000004
   17.35250092  118.31099701    4.63999987    2.71000004
   17.35361099  123.93900299    4.55999994    2.71000004
   17.35611153  127.41999817    4.30999994    2.71000004
   17.35944557  117.71099854    4.09999990    2.71000004
   17.36250114  117.45899963    4.09999990    2.71000004
   17.36583328  118.77600098    4.17999983    2.71000004
   17.36888885  119.13099670    4.23999977    2.71000004
   17.37222290  120.16500092    4.09999990    2.71000004
   17.37833405  120.16500092    4.03999996    2.71000004
   17.38249969  122.64299774    4.03999996    2.71000004
   17.38583374  124.36799622    3.78999996    2.73000002
   17.38694382  122.66400146    3.91000009    2.71000004
   17.38944435  125.07700348    4.07999992    2.71000004
   17.39249992  121.80200195    4.21999979    2.71000004
   17.39583397  122.30100250    4.11999989    2.71000004
   17.39916611  121.67900085    4.23999977    2.71000004
   17.40222168  120.24600220    4.57999992    2.71000004
   17.40555573  128.72700500    4.51000023    2.69000006
   17.40888786  124.23100281    3.86999989    2.73000002
   17.41194344  132.91400146    3.23000002    2.73000002
   17.41527748  124.17800140    3.05999994    2.73000002
   17.42111015  124.17800140    2.94000006    2.75000000
   17.42527771  119.83599854    2.96000004    2.73000002
   17.42860985  123.95099640    3.23000002    2.73000002
   17.43166542  119.97699738    3.53999996    2.73000002
   17.43499947  122.27300262    4.03999996    2.71000004
   17.43833160  122.28700256    3.91000009    2.71000004
   17.44166565  126.77400208    3.66000009    2.73000002
   17.44472122  118.57700348    4.13999987    2.71000004
   17.44805527  123.82299805    4.26000023    2.73000002
   17.45138931  130.27200317    3.51999998    2.75000000
   17.45361137  121.01999664    3.64000010    2.73000002
   17.45499992  122.73799896    3.55999994    2.73000002
   17.45833397  119.45600128    3.70000005    2.73000002
   17.46416664  119.45600128    2.91000009    2.75000000
   17.46805573  115.14900208    2.69000006    2.75000000
   17.47138977  118.22799683    2.53999996    2.75000000
   17.47472191  124.91999817    2.73000002    2.73000002
   17.47777748  126.32599640    2.84999990    2.73000002
   17.48111153  122.87999725    2.78999996    2.73000002
   17.48444557  125.65100098    2.78999996    2.75000000
   17.48694420  129.28199768    2.94000006    2.75000000
   17.48805618  120.85500336    3.01999998    2.73000002
   17.49138832  121.43299866    3.07999992    2.73000002
   17.49444389  122.81099701    3.09999990    2.73000002
   17.49777794  131.80200195    3.36999989    2.73000002
   17.50083351  125.57700348    3.59999990    2.71000004
   17.50694466  125.57700348    3.82999992    2.71000004
   17.51111031  117.85099792    4.00000000    2.71000004
   17.51416588  130.73599243    3.78999996    2.73000002
   17.51749992  122.56300354    3.46000004    2.73000002
   17.52027702  123.27100372    2.96000004    2.75000000
   17.52111053  124.40299988    2.73000002    2.75000000
   17.52444458  130.79800415    2.25000000    2.75000000
   17.52750015  118.01699829    2.17000008    2.75000000
   17.53083229  123.72799683    2.15000010    2.75000000
   17.53388786  135.19999695    2.32999992    2.75000000
   17.53722191  128.44999695    3.00000000    2.75000000
   17.54055595  123.68299866    4.90999985    2.66000009
   17.54361153  119.71700287    4.90999985    2.67000008
   17.54972076  119.71700287    4.67999983    2.71000004
   17.55388832  131.62800598    4.53999996    2.71000004
   17.55722237  124.93599701    4.42999983    2.73000002
   17.56027794  125.56099701    4.90999985    2.67000008
   17.56361008  132.40199280    4.90999985    2.67000008
   17.56666756  128.11199951    4.90999985    2.59999990
   17.57000160  125.88500214    4.90999985    2.67000008
   17.57333374  129.82800293    4.90999985    2.67000008
   17.57638931  123.47899628    4.90999985    2.64000010
   17.57972336  120.76899719    4.90999985    2.64000010
   17.58305550  123.86900330    4.90999985    2.67000008
   17.58611107  123.36900330    4.90999985    2.69000006
   17.58694458  125.32599640    4.90999985    2.69000006
   17.59250069  125.32599640    4.88999987    2.67000008
   17.59666824  115.90599823    3.86999989    2.71000004
   17.60000038  124.17600250    3.36999989    2.73000002
   17.60305595  119.13500214    3.95000005    2.71000004
   17.62083435  120.51200104    3.82999992    2.73000002
   17.62305641  122.80000305    3.80999994    2.73000002
   17.62638855  122.76300049    3.64000010    2.73000002
   17.62972260  122.03199768    3.43000007    2.73000002
   17.63555527  122.03199768    2.80999994    2.75000000
   17.63972282  121.50900269    2.86999989    2.73000002
   17.64305496  120.59500122    2.93000007    2.75000000
   17.64611053  119.81300354    2.98000002    2.73000002
   17.64944458  120.55699921    3.20000005    2.73000002
   17.65250015  125.73100281    3.43000007    2.73000002
   17.65388870  128.77999878    3.51999998    2.73000002
   17.65611076  130.42999268    3.76999998    2.73000002
   17.65944481  129.99400330    4.26000023    2.71000004
   17.66250038  126.30599976    4.30999994    2.71000004
   17.66583252  125.16200256    4.65999985    2.69000006
   17.66916656  127.17800140    4.26999998    2.69000006
   17.67222214  126.87999725    4.00000000    2.71000004
   17.67833328  126.87999725    4.13999987    2.71000004
   17.68249893  128.57899475    4.01999998    2.71000004
   17.68583298  126.48699951    4.17999983    2.71000004
   17.68722153  129.74000549    4.19999981    2.71000004
   17.68944359  126.72499847    4.26000023    2.71000004
   17.69277763  121.69300079    3.70000005    2.73000002
   17.69583321  124.35399628    3.30999994    2.73000002
   17.69916534  126.02300262    3.20000005    2.73000002
   17.70250130  121.69100189    3.16000009    2.73000002
   17.70583344  123.18699646    3.23000002    2.71000004
   17.70888901  122.88200378    3.26999998    2.73000002
   17.71222305  123.63500214    3.09999990    2.73000002
   17.71527863  123.66699982    3.01999998    2.71000004
   17.72138977  123.66699982    3.07999992    2.73000002
   17.72527885  121.52600098    3.11999989    2.73000002
   17.72861099  126.30999756    3.30999994    2.71000004
   17.73194504  126.17400360    3.55999994    2.71000004
   17.73500061  129.02600098    3.66000009    2.71000004
   17.73833275  127.38999939    4.00000000    2.71000004
   17.74166679  134.82600403    4.55999994    2.69000006
   17.74472237  135.46899414    4.59999990    2.71000004
   17.74805641  129.19400024    4.38999987    2.71000004
   17.75111198  117.07199860    4.67999983    2.71000004
   17.75388908  125.21099854    4.07999992    2.71000004
   17.75472260  123.51599884    4.07999992    2.71000004
   17.75805473  127.06099701    3.95000005    2.71000004
   17.76416588  127.06099701    3.55999994    2.73000002
   17.76833344  125.35199738    3.55999994    2.71000004
   17.77138901  128.89300537    3.50000000    2.73000002
   17.77472115  126.37799835    2.78999996    2.73000002
   17.77805519  121.69100189    2.84999990    2.73000002
   17.78111076  127.48799896    3.14000010    2.73000002
   17.78444481  126.28199768    3.39000010    2.73000002
   17.78722191  126.63600159    3.61999989    2.73000002
   17.78805542  128.68800354    3.61999989    2.73000002
   17.79138756  125.02500153    3.91000009    2.71000004
   17.79444313  127.24099731    3.53999996    2.71000004
   17.79777718  127.31700134    3.39000010    2.73000002
   17.80111122  123.34100342    3.01999998    2.73000002
   17.80694389  123.34100342    2.66000009    2.73000002
   17.81110954  129.66700745    2.59999990    2.75000000
   17.81444359  125.93699646    2.67000008    2.73000002
   17.81750107  125.90899658    2.82999992    2.73000002
   17.82083511  125.32099915    3.00000000    2.73000002
   17.82111168  131.63499451    3.00000000    2.73000002
   17.82444572  128.56599426    3.30999994    2.73000002
   17.82750130  128.61999512    3.51999998    2.73000002
   17.83083344  123.91100311    3.34999990    2.73000002
   17.83416748  124.57800293    3.25000000    2.73000002
   17.83722305  126.57900238    3.09999990    2.73000002
   17.84055710  132.75599670    2.59999990    2.75000000
   17.84388924  126.70600128    2.30999994    2.75000000
   17.84972191  126.70600128    2.13000011    2.75000000
   17.85388947  122.69599915    2.30999994    2.75000000
   17.85444450  121.51699829    2.36999989    2.75000000
   17.85777855  121.75499725    3.20000005    2.71000004
   17.86083412  119.79199982    2.67000008    2.73000002
   17.86416626  124.26699829    2.32999992    2.75000000
   17.86750031  127.32099915    2.40000010    2.75000000
   17.87083435  131.17399597    2.55999994    2.75000000
   17.87416649  120.16200256    2.71000004    2.75000000
   17.87750053  122.86499786    2.69000006    2.75000000
   17.88055611  129.12600708    2.48000002    2.75000000
   17.88388824  123.79799652    2.32999992    2.75000000
   17.88722229  126.54399872    2.34999990    2.75000000
   17.88777733  121.97200012    2.28999996    2.75000000
   17.89277840  121.97200012    1.94000006    2.75000000
   17.89666748  125.23200226    0.41999999    2.75000000
   17.89999962  121.58399963    0.36000001    2.75000000
   17.90333366  117.40699768    0.34000000    2.75000000
   17.90638924  125.09700012    0.38000000    2.75000000
   17.90972137  119.51300049    0.40000001    2.75000000
   17.91305542  129.16700745    0.41999999    2.73000002
   17.91611099  121.62899780    0.47999999    2.75000000
   17.91944313  124.54499817    0.50000000    2.75000000
   17.92111015  121.67400360    0.51999998    2.75000000
   17.92305565  123.97599792    0.79000002    2.75000000
   17.92611122  123.27200317    0.94000000    2.75000000
   17.92944336  116.33000183    0.95999998    2.75000000
   17.93555450  116.33000183    0.83999997    2.75000000
   17.93972206  128.49200439    0.81999999    2.75000000
   17.94277763  134.43499756    0.89999998    2.75000000
   17.94610977  129.38400269    0.94000000    2.75000000
   17.94944382  127.92099762    1.09000003    2.73000002
   17.95250130  130.79499817    1.14999998    2.73000002
   17.95444489  127.10199738    1.07000005    2.73000002
   17.95611191  129.02000427    1.03999996    2.75000000
   17.95916748  125.42099762    0.95999998    2.73000002
   17.96250153  125.55000305    0.95999998    2.75000000
   17.96583366  122.64900208    1.00000000    2.73000002
   17.96888924  120.41799927    0.89999998    2.75000000
   17.97222328  128.94599915    0.80000001    2.75000000
   17.97833443  128.94599915    0.83999997    2.75000000
   17.98250008  121.34799957    1.03999996    2.73000002
   17.98583412  123.55799866    1.30999994    2.71000004
   17.98777771  122.65100098    1.41999996    2.75000000
   17.98944473  128.79600525    1.41999996    2.75000000
   17.99250031  123.05300140    1.21000004    2.73000002
   17.99583435  124.66000366    1.26999998    2.75000000
   17.99916649  119.95999908    1.25000000    2.73000002
   18.00222206  120.88400269    1.25000000    2.73000002
   18.00555611  123.57599640    1.16999996    2.73000002
   18.00861168  128.16600037    1.05999994    2.75000000
   18.01194382  120.49199677    0.89999998    2.75000000
   18.01527786  119.71700287    0.88000000    2.75000000
   18.02111053  119.71700287    1.23000002    2.75000000
   18.02527809  120.82099915    2.01999998    2.75000000
   18.02861023  119.97899628    3.59999990    2.73000002
   18.03166580  126.06800079    4.90999985    2.71000004
   18.03499985  121.17099762    4.90999985    2.73000002
   18.03833199  124.46900177    4.90999985    2.71000004
   18.04138756  124.00599670    4.90999985    2.73000002
   18.04472160  125.36699677    4.90999985    2.73000002
   18.04805565  136.75000000    4.90999985    2.73000002
   18.05111122  134.72099304    4.90999985    2.61999989
   18.05444336  131.94500732    4.90999985    2.53999996
   18.05499840  138.25500488    4.90999985    2.53999996
   18.05805397  129.88200378    4.90999985    2.61999989
   18.06416512  129.88200378    4.90999985    2.64000010
   18.06805611  130.39399719    4.90999985    0.01000000
   18.07139015  135.76300049    4.90999985    2.59999990
   18.07472229  135.39799500    4.90999985    2.59999990
   18.07777786  137.80299377    4.90999985    2.61999989
   18.08111191  141.63600159    4.90999985    2.59999990
   18.08444595  138.99000549    4.90999985    2.55999994
   18.08750153  143.55200195    4.90999985    2.53999996
   18.08805656  133.30299377    4.90999985    2.53999996
   18.09138870  147.42199707    4.90999985    2.53999996
   18.09444427  139.98300171    4.90999985    2.53999996
   18.09777832  124.66100311    4.90999985    2.55999994
   18.10111237  131.83799744    4.90999985    2.71000004
   18.10694504  131.83799744    2.32999992    2.73000002
   18.11111069  126.00099945    1.63000000    2.73000002
   18.11416626  128.94500732    1.48000002    2.73000002
   18.11750031  125.29399872    1.16999996    2.73000002
   18.12083435  129.96099854    1.09000003    2.73000002
   18.12138939  127.83699799    1.07000005    2.73000002
   18.12444496  126.08599854    1.09000003    2.73000002
   18.12750053  125.44100189    1.14999998    2.73000002
   18.13083267  128.26400757    1.14999998    2.73000002
   18.13416672  122.87400055    1.23000002    2.71000004
   18.13722229  124.25499725    1.25000000    2.73000002
   18.14055634  131.30099487    1.44000006    2.73000002
   18.14388847  133.39999390    1.66999996    2.71000004
   18.14972115  133.39999390    1.73000002    2.73000002
   18.15388870  130.49400330    1.73000002    2.71000004
   18.15472221  126.17299652    1.73000002    2.71000004
   18.15749931  137.09899902    1.41999996    2.73000002
   18.16055489  132.91299438    1.33000004    2.73000002
   18.16388893  119.71199799    1.30999994    2.73000002
   18.16722107  123.26699829    1.30999994    2.73000002
   18.17027664  122.35399628    1.30999994    2.73000002
   18.17361069  119.40200043    1.38000000    2.73000002
   18.17666626  136.06399536    1.11000001    2.73000002
   18.18000031  122.76499939    0.83999997    2.73000002
   18.18333244  126.15399933    0.63000000    2.75000000
   18.18638802  122.57800293    0.61000001    2.73000002
   18.18805504  125.51100159    0.61000001    2.73000002
   18.19249916  125.51100159    0.55000001    2.73000002
   18.19666672  126.72799683    0.46000001    2.75000000
   18.20000076  126.15599823    0.40000001    2.73000002
   18.20305634  132.72599792    0.40000001    2.73000002
   18.20639038  122.59200287    0.41999999    2.73000002
   18.20972252  119.41000366    0.47999999    2.75000000
   18.21305656  127.94999695    0.47999999    2.75000000
   18.21611214  118.41000366    0.52999997    2.73000002
   18.21944427  118.95300293    0.52999997    2.75000000
   18.22138977  122.65699768    0.52999997    2.75000000
   18.22305679  125.35099792    0.52999997    2.76999998
   18.22611237  132.47900391    0.56999999    2.75000000
   18.22944450  128.67799377    0.56999999    2.75000000
   18.23555565  128.67799377    0.70999998    2.75000000
   18.23944473  121.26799774    0.75000000    2.73000002
   18.24277878  129.71600342    0.75000000    2.73000002
   18.24611092  122.32099915    0.69000000    2.75000000
   18.24916649  119.65699768    0.70999998    2.73000002
   18.25250053  121.97899628    0.70999998    2.73000002
   18.25472260  123.73500061    0.76999998    2.75000000
   18.25638962  123.52500153    0.76999998    2.75000000
   18.25972176  125.91600037    0.86000001    2.75000000
   18.26277733  119.41899872    1.19000006    2.73000002
   18.26611137  122.74800110    1.58000004    2.73000002
   18.26916695  122.06700134    1.58000004    2.71000004
   18.27249908  129.55499268    1.51999998    2.71000004
   18.27833366  129.55499268    1.34000003    2.71000004
   18.28249931  118.81199646    1.33000004    2.73000002
   18.28555489  121.56800079    1.36000001    2.71000004
   18.28805542  125.25900269    1.44000006    2.71000004
   18.28944397  120.43499756    1.44000006    2.71000004
   18.29249954  122.59899902    1.44000006    2.71000004
   18.29583359  126.43599701    1.55999994    2.73000002
   18.29916573  122.88999939    1.61000001    2.73000002
   18.30222130  127.29499817    1.80999994    2.71000004
   18.30555534  134.96699524    1.83000004    2.71000004
   18.30888748  124.31900024    1.86000001    2.73000002
   18.31194305  123.93199921    1.80999994    2.71000004
   18.31527710  126.89299774    1.80999994    2.71000004
   18.32111168  126.89299774    1.46000004    2.71000004
   18.32527924  121.11499786    1.38000000    2.73000002
   18.32861137  124.26799774    1.39999998    2.73000002
   18.33194542  128.53199768    1.39999998    2.75000000
   18.33527756  130.99499512    1.39999998    2.75000000
   18.33833313  128.71400452    1.34000003    2.71000004
   18.34166718  125.20600128    1.30999994    2.71000004
   18.34500122  133.41499329    1.30999994    2.73000002
   18.34833336  130.43200684    1.30999994    2.71000004
   18.35138893  132.15699768    1.30999994    2.71000004
   18.35472298  123.18299866    1.30999994    2.71000004
   18.35611153  131.89100647    1.30999994    2.71000004
   18.35833359  121.91699982    1.38000000    2.71000004
   18.36388969  121.91699982    2.17000008    2.71000004
   18.36805534  133.31100464    2.13000011    2.71000004
   18.37138939  131.52799988    2.05999994    2.71000004
   18.37472153  129.75399780    2.01999998    2.71000004
   18.37777710  130.91400146    1.96000004    2.71000004
   18.38111115  119.78600311    1.85000002    2.71000004
   18.38444519  118.64800262    1.85000002    2.71000004
   18.38750076  120.81400299    1.78999996    2.71000004
   18.38944435  130.19500732    1.78999996    2.71000004
   18.39111137  125.77300262    1.71000004    2.71000004
   18.39444351  132.69400024    1.86000001    2.71000004
   18.39749908  126.80000305    4.90999985    2.71000004
   18.40083313  129.37300110    4.90999985    2.71000004
   18.40694427  129.37300110    4.90999985    2.66000009
   18.41083336  135.02799988    4.90999985    2.61999989
   18.41416550  164.66900635    4.90999985    2.61999989
   18.41749954  128.94900513    4.90999985    2.64000010
   18.42055511  142.20700073    4.90999985    2.61999989
   18.42305565  139.64500427    4.90999985    2.64000010
   18.42416573  140.58999634    4.90999985    2.67000008
   18.42749977  139.25399780    4.90999985    2.66000009
   18.43083191  143.56799316    4.90999985    2.57999992
   18.43388748  149.21800232    4.90999985    2.55999994
   18.43722153  153.75999451    4.90999985    2.53999996
   18.44055557  132.22599792    4.90999985    2.64000010
   18.44361115  130.09500122    4.90999985    2.64000010
   18.44972038  130.09500122    4.90999985    2.64000010
   18.45388985  135.73300171    4.90999985    2.64000010
   18.45639038  147.43499756    4.90999985    2.67000008
   18.45722389  141.28199768    4.90999985    2.69000006
   18.46055603  132.79899597    3.30999994    2.73000002
   18.46389008  125.01699829    0.79000002    2.73000002
   18.46694565  132.09100342    0.67000002    2.71000004
   18.47027779  140.32000732    0.61000001    2.73000002
   18.47361183  127.01100159    0.63000000    2.71000004
   18.47666740  140.61399841    0.69000000    2.71000004
   18.48000145  130.12199402    0.73000002    2.73000002
   18.48333359  138.53500366    0.79000002    2.71000004
   18.48638916  134.57800293    0.83999997    2.71000004
   18.49250031  134.57800293    1.00000000    2.73000002
   18.49666786  127.87000275    1.00000000    2.71000004
   18.50000000  127.69499969    1.00000000    2.71000004
   18.50305557  126.61499786    1.00000000    2.73000002
   18.50638962  121.91000366    1.09000003    2.73000002
   18.50944519  124.67199707    1.34000003    2.73000002
   18.51277733  138.34100342    3.09999990    2.71000004
   18.51611137  136.26899719    4.90999985    2.71000004
   18.51916695  122.67199707    4.90999985    2.71000004
   18.52249908  125.88600159    4.90999985    2.64000010
   18.52333260  131.95599365    4.90999985    2.66000009
   18.52611160  140.85299683    4.90999985    2.59999990
   18.52944374  148.01300049    4.90999985    2.51999998
   18.53527641  148.01300049    4.90999985    2.55999994
   18.53944397  136.93800354    4.90999985    2.59999990
   18.54277802  132.66700745    4.90999985    2.67000008
   18.54611015  133.16799927    4.90999985    2.67000008
   18.54916573  132.62800598    4.90999985    2.67000008
   18.55249977  128.49600220    4.90999985    2.69000006
   18.55583191  129.04200745    4.78000021    2.67000008
   18.55666542  132.21000671    4.57999992    2.67000008
   18.55944443  135.60299683    3.50000000    2.71000004
   18.56277657  125.67700195    1.66999996    2.71000004
   18.56583214  127.98500061    1.46000004    2.71000004
   18.56916809  125.61000061    1.25000000    2.71000004
   18.57222366  122.16699982    1.13000000    2.71000004
   18.57833481  122.16699982    1.03999996    2.71000004
   18.58222389  124.55899811    1.00000000    2.71000004
   18.58555603  123.98600006    0.86000001    2.71000004
   18.58889008  122.64900208    0.83999997    2.71000004
   18.59027863  122.52100372    0.79000002    2.71000004
   18.59250069  127.50900269    0.73000002    2.71000004
   18.59555626  123.71199799    0.73000002    2.71000004
   18.59889030  125.68199921    0.75000000    2.71000004
   18.60222244  117.97599792    0.73000002    2.71000004
   18.60527802  126.41799927    0.75000000    2.71000004
   18.60861206  133.30599976    0.80000001    2.71000004
   18.61166763  128.09800720    0.86000001    2.73000002
   18.61499977  130.15699768    0.89999998    2.71000004
   18.62111092  130.15699768    0.86000001    2.71000004
   18.63944435  127.42299652    1.00000000    2.71000004
   18.64277840  126.46900177    1.00000000    2.71000004
   18.64583397  121.30599976    0.98000002    2.71000004
   18.64916611  120.80100250    0.94000000    2.71000004
   18.65250015  127.21700287    0.94000000    2.71000004
   18.65555573  123.19699860    0.86000001    2.71000004
   18.65888786  125.57199860    0.80000001    2.71000004
   18.66416550  125.57199860    0.76999998    2.71000004
   18.66833305  137.29299927    0.64999998    2.71000004
   18.67138863  120.58300018    0.64999998    2.71000004
   18.67249870  121.36399841    0.61000001    2.73000002
   18.67527771  124.19499969    0.61000001    2.73000002
   18.67833328  119.94599915    0.58999997    2.73000002
   18.68166542  120.40399933    0.56999999    2.71000004
   18.68472099  128.77999878    0.55000001    2.73000002
   18.68805504  113.58000183    0.52999997    2.71000004
   18.69138718  123.30000305    0.52999997    2.71000004
   18.69444275  123.51399994    0.52999997    2.73000002
   18.69777679  124.07199860    0.55000001    2.71000004
   18.70111275  128.48399353    0.58999997    2.71000004
   18.70694542  128.48399353    0.61000001    2.71000004
   18.71138954  120.99400330    0.58999997    2.73000002
   18.71472359  123.48500061    0.61000001    2.71000004
   18.71777916  121.01599884    0.61000001    2.71000004
   18.72111130  131.84500122    0.63000000    2.71000004
   18.72444534  127.14299774    0.69000000    2.71000004
   18.72750092  123.24199677    0.61000001    2.71000004
   18.73083305  125.38800049    0.56999999    2.71000004
   18.73416710  123.10800171    0.52999997    2.73000002
   18.73722267  121.02400208    0.52999997    2.73000002
   18.73916626  118.88899994    0.51999998    2.71000004
   18.74111176  126.56999969    0.51999998    2.71000004
   18.74416733  126.92299652    0.50000000    2.73000002
   18.74972153  126.92299652    0.52999997    2.73000002
   18.75388908  120.54100037    0.61000001    2.71000004
   18.75722313  122.84300232    0.61000001    2.71000004
   18.76027870  135.00599670    0.69000000    2.71000004
   18.76361084  117.89399719    0.80000001    2.71000004
   18.76694489  122.16600037    0.94000000    2.71000004
   18.77000046  127.08699799    0.98000002    2.71000004
   18.77249908  137.54600525    0.98000002    2.71000004
   18.77388954  127.41100311    1.03999996    2.71000004
   18.77694511  134.07600403    1.09000003    2.71000004
   18.78027725  122.63800049    1.09000003    2.71000004
   18.78333282  129.02400208    1.07000005    2.71000004
   18.78666687  123.45400238    1.07000005    2.71000004
   18.79277802  123.45400238    1.00000000    2.71000004
   18.79666710  125.94999695    0.98000002    2.69000006
   18.79999924  123.89900208    0.94000000    2.71000004
   18.80333328  137.53799438    0.94000000    2.71000004
   18.80583191  136.90100098    0.95999998    2.71000004
   18.80666542  139.80299377    0.95999998    2.71000004
   18.80999947  115.67099762    0.98000002    2.71000004
   18.81333351  131.99499512    1.00000000    2.71000004
   18.81666756  136.80400085    1.07000005    2.71000004
   18.81972313  134.41600037    1.14999998    2.69000006
   18.82305717  128.71699524    1.14999998    2.69000006
   18.82638931  132.12600708    1.14999998    2.69000006
   18.82944489  124.66200256    1.14999998    2.69000006
   18.83555603  124.66200256    1.09000003    2.71000004
   18.83972359  143.82200623    0.92000002    2.71000004
   18.84277916  142.45100403    0.92000002    2.71000004
   18.84611130  147.28900146    0.89999998    2.71000004
   18.84944534  124.68299866    0.89999998    2.71000004
   18.85250092  130.25199890    0.92000002    2.71000004
   18.85583305  135.10600281    0.92000002    2.71000004
   18.85888863  129.88600159    0.92000002    2.71000004
   18.86222267  121.77700043    0.94000000    2.71000004
   18.86555672  133.35699463    1.01999998    2.71000004
   18.86861038  141.22300720    0.98000002    2.69000006
   18.87222290  137.51899719    0.98000002    2.71000004
   18.87249947  146.95199585    0.98000002    2.71000004
   18.87833405  146.95199585    1.00000000    2.69000006
   18.88249969  143.54600525    1.25000000    2.69000006
   18.88583374  136.15100098    1.25000000    2.69000006
   18.88916588  136.30200195    1.25000000    2.69000006
   18.89249992  130.07000732    1.26999998    2.69000006
   18.89555550  155.16900635    1.28999996    2.69000006
   18.89888954  155.75599670    1.30999994    2.69000006
   18.90222168  140.89500427    1.36000001    2.69000006
   18.90527725  136.87800598    1.41999996    2.69000006
   18.90583229  180.57899475    1.41999996    2.69000006
   18.90888786  135.48899841    1.41999996    2.69000006
   18.91222191  156.66499329    1.41999996    2.69000006
   18.91527748  128.34399414    1.23000002    2.69000006
   18.92111015  128.34399414    0.92000002    2.71000004
   18.92527771  166.15699768    0.88000000    2.71000004
   18.92860985  144.78100586    0.88000000    2.71000004
   18.93166542  149.88000488    0.86000001    2.71000004
   18.93499947  130.05299377    0.76999998    2.71000004
   18.93833160  131.66299438    0.76999998    2.71000004
   18.93916512  135.87199402    0.76999998    2.71000004
   18.94166565  123.10500336    0.80000001    2.71000004
   18.94499969  125.78900146    0.79000002    2.71000004
   18.94805527  127.59100342    0.79000002    2.71000004
   18.95138931  151.86700439    0.79000002    2.71000004
   18.95472336  139.81700134    0.79000002    2.71000004
   18.95777893  124.09200287    0.75000000    2.71000004
   18.96389008  124.09200287    0.79000002    2.69000006
   18.96805573  141.53799438    0.95999998    2.71000004
   18.97138977  140.54299927    0.95999998    2.71000004
   18.97249985  131.02600098    1.07000005    2.69000006
   18.97500038  125.52300262    1.07000005    2.69000006
   18.97833443  132.21099854    1.14999998    2.69000006
   18.98139000  127.90499878    0.89999998    2.69000006
   18.98472214  129.85400391    0.69000000    2.71000004
   18.98805618  129.57099915    0.61000001    2.69000006
   18.99111176  122.93900299    0.61000001    2.69000006
   18.99444389  141.24400330    0.52999997    2.71000004
   18.99777794  130.76899719    0.55000001    2.71000004
   19.00083351  125.65000153    0.58999997    2.69000006
   19.00694466  125.65000153    0.63000000    2.71000004
   19.01111031  134.47900391    0.63000000    2.71000004
   19.01416588  127.23799896    0.79000002    2.69000006
   19.01749992  126.26899719    0.88000000    2.69000006
   19.02083397  140.34500122    2.36999989    2.67000008
   19.02388954  135.07200623    3.51999998    2.64000010
   19.02722168  131.43899536    4.90999985    2.59999990
   19.03027725  137.63299561    4.90999985    2.51999998
   19.03361130  137.32600403    4.90999985    2.51999998
   19.03694344  136.21600342    4.90999985    2.42000008
   19.03916550  143.40499878    4.90999985    2.40000010
   19.04055595  145.81399536    4.90999985    2.40000010
   19.04388809  133.20399475    4.90999985    2.44000006
   19.04972076  133.20399475    4.90999985    2.44000006
   19.05388832  124.63899994    4.90999985    2.51999998
   19.05694389  124.11699677    4.90999985    2.59999990
   19.06027794  132.67300415    4.90999985    2.67000008
   19.06361008  125.70899963    4.13999987    2.61999989
   19.06666756  124.95999908    3.28999996    2.67000008
   19.07000160  122.13899994    1.05999994    2.69000006
   19.07250023  126.88700104    0.69000000    2.69000006
   19.07361221  123.51399994    0.67000002    2.69000006
   19.07694626  135.95899963    0.58999997    2.69000006
   19.08000183  133.72300720    0.52999997    2.67000008
   19.08333397  130.35299683    0.51999998    2.69000006
   19.08666801  131.82600403    0.51999998    2.67000008
   19.09250069  131.82600403    0.47999999    2.69000006
   19.09666824  126.07499695    0.47999999    2.71000004
   19.10000038  128.82600403    0.47999999    2.69000006
   19.10305595  131.17900085    0.47999999    2.69000006
   19.10583305  122.49500275    0.40000001    2.69000006
   19.10666656  128.40499878    0.40000001    2.69000006
   19.11000061  124.81400299    0.40000001    2.69000006
   19.11305618  120.51799774    0.40000001    2.69000006
   19.11638832  118.40599823    0.40000001    2.69000006
   19.11972237  125.87200165    0.40000001    2.69000006
   19.12277794  123.87300110    0.41999999    2.69000006
   19.12611198  127.03399658    0.47999999    2.69000006
   19.12944412  127.48500061    0.52999997    2.69000006
   19.13527679  127.48500061    0.52999997    2.69000006
   19.13944435  128.59399414    0.55000001    2.69000006
   19.14277840  121.23999786    0.55000001    2.69000006
   19.14611053  131.86700439    0.47999999    2.69000006
   19.14944458  126.78299713    0.47999999    2.69000006
   19.15250015  127.88200378    0.50000000    2.69000006
   19.15583229  135.61099243    0.51999998    2.69000006
   19.15916634  132.89500427    0.51999998    2.69000006
   19.16222191  125.06700134    0.52999997    2.69000006
   19.16555595  121.70600128    0.52999997    2.69000006
   19.16860962  120.15000153    0.52999997    2.69000006
   19.17194366  128.20799255    0.52999997    2.69000006
   19.17249870  128.46299744    0.52999997    2.69000006
   19.17833328  128.46299744    0.64999998    2.69000006
   19.18249893  119.31400299    0.64999998    2.69000006
   19.18555450  130.32299805    0.83999997    2.69000006
   19.18888855  135.93099976    2.91000009    2.67000008
   19.19222069  167.31799316    4.90999985    2.44000006
   19.19527626  146.39700317    4.90999985    2.21000004
   19.19861031  148.30400085    4.90999985    2.39000010
   19.20166779  122.66000366    4.90999985    2.40000010
   19.20499992  139.37699890    4.90999985    2.55999994
   19.20611191  134.96600342    4.90999985    2.59999990
   19.20861244  131.14700317    4.90999985    2.64000010
   19.21194458  127.49900055    3.70000005    2.61999989
   19.21527863  129.90299988    4.21999979    2.64000010
   19.22111130  129.90299988    4.80999994    2.59999990
   19.22527885  129.14700317    4.80000019    2.59999990
   19.22861099  141.32499695    4.61999989    2.64000010
   19.23166656  129.38600159    4.13999987    2.64000010
   19.23500061  141.82699585    3.41000009    2.66000009
   19.23805618  126.11399841    2.69000006    2.67000008
   19.23944473  122.63400269    2.34999990    2.69000006
   19.24166679  126.88899994    0.83999997    2.71000004
   19.24500084  133.52900696    0.50000000    2.69000006
   19.24805641  132.13499451    0.47999999    2.67000008
   19.25138855  130.06500244    0.47999999    2.67000008
   19.25472260  125.64800262    0.47999999    2.67000008
   19.25777817  128.99600220    0.51999998    2.67000008
   19.26388931  128.99600220    0.55000001    2.69000006
   19.26805496  119.54299927    0.63000000    2.67000008
   19.27138901  120.93800354    0.67000002    2.69000006
   19.27277756  125.06400299    0.70999998    2.69000006
   19.27472115  121.02500153    0.81999999    2.67000008
   19.27805519  120.08999634    0.95999998    2.67000008
   19.28138924  124.16600037    0.95999998    2.67000008
   19.28444481  128.36799622    1.01999998    2.67000008
   19.28777695  123.20200348    0.86000001    2.67000008
   19.29083252  131.10499573    0.79000002    2.67000008
   19.29416656  131.01600647    0.76999998    2.67000008
   19.29749870  133.13800049    0.75000000    2.67000008
   19.30055428  120.74600220    0.75000000    2.67000008
   19.30666542  120.74600220    0.88000000    2.67000008
   19.31083298  129.47700500    1.71000004    2.67000008
   19.31416512  128.66700745    4.90999985    2.57999992
   19.31750107  129.25999451    4.90999985    2.59999990
   19.32055664  133.89500427    4.90999985    2.51999998
   19.32389069  147.45100403    4.90999985    2.44000006
   19.32694626  150.08099365    4.90999985    2.28999996
   19.33027840  147.45199585    4.90999985    2.30999994
   19.33361244  152.29100037    4.90999985    2.34999990
   19.33666801  152.98100281    4.90999985    2.32999992
   19.33944511  135.76199341    4.90999985    2.28999996
   19.34027863  149.50599670    4.90999985    2.32999992
   19.34361267  150.17500305    4.90999985    2.30999994
   19.34972191  150.17500305    4.90999985    2.32999992
   19.35388947  160.07499695    4.90999985    2.32999992
   19.35694504  158.86199951    4.90999985    2.26999998
   19.36027908  164.33700562    4.90999985    2.23000002
   19.36333466   38.70429993    4.90999985    2.01999998
   19.36666679  161.24600220    4.90999985    1.78999996
   19.37000084  141.32099915    4.90999985    2.28999996
   19.37277794  143.14700317    4.90999985    2.51999998
   19.37333298  130.71299744    4.90999985    2.59999990
   19.37666702  126.73799896    4.90999985    2.67000008
   19.38000107  141.30599976    2.21000004    2.67000008
   19.38305473  131.74000549    1.36000001    2.67000008
   19.38638878  130.36500549    1.36000001    2.67000008
   19.39249992  130.36500549    2.23000002    2.66000009
   19.39666748  128.27400208    2.13000011    2.64000010
   19.39972115  123.79699707    1.63000000    2.66000009
   19.40305519  125.42400360    1.34000003    2.67000008
   19.40611076  126.94999695    1.14999998    2.67000008
   19.40666580  123.65899658    1.11000001    2.67000008
   19.40999985  135.78199768    1.07000005    2.67000008
   19.41333389  139.24699402    1.05999994    2.67000008
   19.41638756  133.11399841    0.98000002    2.67000008
   19.41972160  142.16000366    1.03999996    2.67000008
   19.42277718  152.77600098    1.33000004    2.67000008
   19.42611122  144.65600586    1.33000004    2.67000008
   19.42944336  169.17999268    1.60000002    2.64000010
   19.43527603  169.17999268    1.64999998    2.66000009
   19.43944359  182.37899780    1.07000005    2.67000008
   19.44277763  159.21699524    0.76999998    2.67000008
   19.44583321  172.31199646    0.76999998    2.67000008
   19.44916534  173.88400269    0.76999998    2.67000008
   19.45222282  166.67300415    0.73000002    2.67000008
   19.45555687  186.61999512    0.73000002    2.66000009
   19.45888901  165.37300110    0.83999997    2.66000009
   19.46194458  189.61999512    1.03999996    2.66000009
   19.46527863  165.05499268    1.03999996    2.66000009
   19.46861076  177.30000305    1.33000004    2.66000009
   19.47166634  192.75999451    1.55999994    2.64000010
   19.47277832  172.42700195    1.60000002    2.66000009
   19.47805595  172.42700195    1.55999994    2.66000009
   19.48222351  193.73399353    1.39999998    2.66000009
   19.48555565  183.86099243    1.13000000    2.67000008
   19.48861122  176.87300110    1.01999998    2.66000009
   19.49194527  200.27900696    1.01999998    2.66000009
   19.49527740  171.05400085    1.03999996    2.66000009
   19.49861145  185.06300354    1.01999998    2.66000009
   19.50194359  159.28799438    1.03999996    2.66000009
   19.50527763  181.29100037    1.03999996    2.66000009
   19.50611115  164.91400146    1.05999994    2.66000009
   19.50861168  182.32000732    1.05999994    2.66000009
   19.51194382  191.04899597    0.95999998    2.66000009
   19.51527786  177.53799438    0.92000002    2.66000009
   19.52111053  177.53799438    0.86000001    2.66000009
   19.52527809  194.69000244    0.76999998    2.66000009
   19.52833366  181.95100403    0.76999998    2.66000009
   19.53166580  186.90199280    0.75000000    2.66000009
   19.53472137  183.45899963    0.76999998    2.66000009
   19.53805542  159.79400635    0.79000002    2.66000009
   19.53944397  162.95300293    0.79000002    2.66000009
   19.54166603  168.15299988    0.76999998    2.66000009
   19.54500008  180.63999939    0.79000002    2.64000010
   19.54833221  183.49299622    0.86000001    2.66000009
   19.55138779  169.56399536    0.86000001    2.66000009
   19.55472183  180.74699402    1.01999998    2.66000009
   19.55805397  176.28999329    1.01999998    2.66000009
   19.56388855  176.28999329    1.21000004    2.64000010
   19.56805611  197.52099609    1.21000004    2.64000010
   19.57111168  178.55200195    1.11000001    2.66000009
   19.57277870  195.22099304    1.01999998    2.66000009
   19.57472229  197.66799927    1.01999998    2.66000009
   19.57805634  192.06100464    1.01999998    2.66000009
   19.58139038  186.53900146    1.00000000    2.66000009
   19.58444595  196.94000244    1.07000005    2.64000010
   19.58777809  178.29800415    1.34000003    2.66000009
   19.59111214  184.45500183    1.51999998    2.64000010
   19.59416771  190.01800537    1.53999996    2.64000010
   19.59749985  197.14300537    2.13000011    2.61999989
   19.60083389  178.11999512    2.23000002    2.64000010
   19.60666656  178.11999512    1.80999994    2.64000010
   19.61083412  172.48399353    1.83000004    2.61999989
   19.61416626  180.27799988    1.83000004    2.61999989
   19.61722183  175.67900085    1.85000002    2.64000010
   19.62055588  191.47399902    1.19000006    2.66000009
   19.62388992  185.61399841    1.11000001    2.66000009
   19.62694550  185.15899658    1.13000000    2.66000009
   19.63027763  185.88299561    1.16999996    2.64000010
   19.63333321  191.39500427    1.21000004    2.64000010
   19.63666725  201.28500366    1.21000004    2.66000009
   19.63944435  175.54200745    1.21000004    2.66000009
   19.65999985  175.54200745    1.61000001    2.64000010
   19.66416550  175.44700623    1.39999998    2.64000010
   19.66722107  182.39900208    1.25000000    2.64000010
   19.67055511  179.37800598    1.30999994    2.64000010
   19.67277718  184.43499756    1.21000004    2.64000010
   19.67444420  204.16400146    1.01999998    2.64000010
   19.67749977  196.83399963    1.01999998    2.64000010
   19.68083191  173.90800476    0.95999998    2.64000010
   19.68388748  173.05599976    0.95999998    2.64000010
   19.68722153  184.19900513    0.81999999    2.64000010
   19.69055557  178.13900757    0.75000000    2.64000010
   19.69361115  162.39500427    0.76999998    2.66000009
   19.69694328  185.25399780    0.81999999    2.64000010
   19.70277786  185.25399780    0.94000000    2.64000010
   19.70694542  189.97500610    1.44000006    2.64000010
   19.71000099  188.17100525    1.98000002    2.61999989
   19.71333504  174.83099365    2.51999998    2.61999989
   19.71638870  172.97000122    2.76999998    2.61999989
   19.71972275  160.54699707    2.91000009    2.61999989
   19.72305679  170.34399414    3.07999992    2.59999990
   19.72611237  173.24400330    3.21000004    2.59999990
   19.72944450  182.30400085    3.00000000    2.59999990
   19.73277855  174.48800659    3.20000005    2.57999992
   19.73583412  193.53599548    3.09999990    2.59999990
   19.73916626  173.14900208    2.69000006    2.59999990
   19.73972321  174.04400635    2.69000006    2.59999990
   19.74555588  174.04400635    2.23000002    2.59999990
   19.74972153  178.54600525    2.00000000    2.61999989
   19.75277710  159.83299255    1.91999996    2.61999989
   19.75611115  176.12600708    1.63000000    2.61999989
   19.75944519  162.92199707    1.41999996    2.61999989
   19.76250076  162.86900330    1.25000000    2.59999990
   19.76583290  158.16700745    1.21000004    2.61999989
   19.76944351  162.99099731    1.23000002    2.61999989
   19.77249908  173.41000366    1.23000002    2.61999989
   19.77305603  172.52900696    1.21000004    2.61999989
   19.77611160  174.98300171    1.34000003    2.61999989
   19.77916718  169.93400574    1.38000000    2.59999990
   19.78249931  161.99299622    1.41999996    2.59999990
   19.78833199  161.99299622    2.28999996    2.64000010
   19.79249954  175.20899963    3.11999989    2.61999989
   19.79583359  157.00500488    4.67999983    2.55999994
   19.79888916  186.50700378    4.90999985    2.59999990
   19.80222130  160.02400208    4.90999985    2.51999998
   19.80555534  171.75000000    4.90999985    2.48000002
   19.80638885  181.92700195    4.90999985    2.44000006
   19.80916595  200.14999390    4.90999985    2.44000006
   19.81222153  184.01600647    4.90999985    2.32999992
   19.81555557  234.45100403    4.90999985    2.28999996
   19.81888962  199.18299866    4.90999985    2.23000002
   19.82194519  217.24800110    4.90999985    2.26999998
   19.82527924  225.76300049    4.90999985    2.11999989
   19.83139038  225.76300049    4.90999985    2.11999989
   19.83527756  157.81300354    4.90999985    2.07999992
   19.83861160  176.61099243    4.90999985    2.34999990
   19.83972359  171.51400757    4.90999985    2.46000004
   19.84222221  162.67799377    4.90999985    2.44000006
   19.84527779  158.42599487    4.90999985    2.53999996
   19.84861183  172.04100037    4.90999985    2.59999990
   19.85194397  153.27400208    4.90999985    2.55999994
   19.85499954  158.43600464    4.11999989    2.59999990
   19.85833359  159.95700073    3.51999998    2.59999990
   19.86166763  163.04200745    3.14000010    2.59999990
   19.86472321  148.95500183    2.55999994    2.64000010
   19.86805534  149.45500183    1.88000000    2.64000010
   19.87416649  149.45500183    2.36999989    2.59999990
   19.87833405  162.19599915    3.91000009    2.48000002
   19.88138962  154.95100403    4.90999985    2.50000000
   19.88472176  152.26800537    4.90999985    2.51999998
   19.88777733  147.16700745    4.90999985    2.51999998
   19.89111137  147.93800354    4.90999985    2.55999994
   19.89444351  165.91799927    4.90999985    2.55999994
   19.89749908  168.94799805    4.90999985    2.51999998
   19.90083313  184.94900513    4.90999985    2.48000002
   19.90416718  193.55799866    4.90999985    2.39000010
   19.90638924  155.26499939    4.90999985    2.28999996
   19.90777779  158.19999695    4.90999985    2.32999992
   19.91083336  158.92999268    4.90999985    2.42000008
   19.91694450  158.92999268    4.90999985    2.36999989
   19.92111015  152.41099548    4.90999985    2.30999994
   19.92416573  170.03700256    4.90999985    2.34999990
   19.92749977  158.80700684    4.90999985    2.40000010
   19.93083191  161.93899536    4.90999985    2.42000008
   19.93388748  164.86700439    4.90999985    2.40000010
   19.93722153  162.41400146    4.90999985    2.40000010
   19.93972206  157.37300110    4.90999985    2.40000010
   19.94083214  159.78799438    4.90999985    2.39000010
   19.94388771  172.25599670    4.90999985    2.30999994
   19.94722176  146.57899475    4.90999985    2.28999996
   19.95055580  149.85499573    4.90999985    2.40000010
   19.95361137  160.37500000    4.90999985    2.42000008
   19.95972252  160.37500000    4.90999985    2.32999992
   19.96389008  185.79499817    4.90999985    2.25000000
   19.96722221  249.02400208    4.90999985    2.19000006
   19.97027779  260.25500488    4.90999985    2.05999994
   19.97305679  213.35899353    4.90999985    2.05999994
   19.97389030  269.89801025    4.90999985    2.07999992
   19.97694588  182.80200195    4.90999985    2.07999992
   19.98027802  238.82299805    4.90999985    2.11999989
   19.98361206  180.82699585    4.90999985    2.13000011
   19.98722267  264.81201172    4.90999985    2.05999994
   19.99027824  358.49301147    4.90999985    1.98000002
   19.99361229  227.04699707    4.90999985    1.83000004
   19.99666786  170.47999573    4.90999985    2.34999990
   20.00250053  170.47999573    4.90999985    2.21000004
   20.00666618  274.29598999    4.90999985    1.94000006
   20.01000023  152.07699585    4.90999985    1.78999996
   20.01333427  144.20899963    4.90999985    1.69000006
   20.01638794  128.38200378    4.90999985    1.73000002
   20.01972198  193.31500244    4.90999985    1.51999998
   20.02277756   -1.00000000    4.90999985    1.63000000
   20.02611160   91.90440369    4.90999985    1.39999998
   20.02944374   -1.00000000    4.90999985    1.58000004
   20.03249931   70.92729950    4.90999985    1.39999998
   20.03583336  359.70800781    4.90999985    1.64999998
   20.03916550   -1.00000000    4.90999985    1.63000000
   20.03972244   56.19960022    4.90999985    1.63000000
   20.04555511   56.19960022    4.90999985    1.30999994
   20.04972076   -1.00000000    4.90999985    1.33000004
   20.05277634  310.94601440    4.90999985    1.58000004
   20.05611038  181.30099487    4.90999985    1.96000004
   20.05916595  138.37600708    4.90999985    2.30999994
   20.06250000  143.83999634    4.90999985    2.51999998
   20.06583214  149.99299622    4.90999985    2.57999992
   20.06888962  151.56900024    4.90999985    2.53999996
   20.07222366  157.64199829    4.90999985    2.51999998
   20.07305717  148.83099365    4.90999985    2.50000000
   20.07583427  141.37199402    4.90999985    2.48000002
   20.07916832  142.63600159    4.90999985    2.44000006
   20.08222389  159.42999268    4.90999985    2.46000004
   20.08833313  159.42999268    4.90999985    2.44000006
   20.09250069  210.88299561    4.90999985    2.40000010
   20.09583473  220.02000427    4.90999985    2.40000010
   20.09889030  230.68600464    4.90999985    2.32999992
   20.10222244  274.89199829    4.90999985    2.36999989
   20.10527802  272.75000000    4.90999985    2.40000010
   20.10639000  168.40699768    4.90999985    2.34999990
   20.10888863  104.31500244    4.90999985    2.21000004
