    HOUR (UT)   FLARE FACTOR    SKY TESTER    SUN TESTER
   13.78444481   -1.00000000   -1.00000000   -1.00000000
   13.81999969  120.73100281    4.90999985    2.23000002
   13.82333374  120.36000061    4.90999985    2.26999998
   13.82666683  123.51399994    4.90999985    2.28999996
   13.82972240  124.64499664    4.90999985    2.30999994
   13.83305550  133.83500671    4.90999985    2.30999994
   13.83638859  124.87100220    4.90999985    2.25000000
   13.84055519  124.87100220    4.90999985    2.28999996
   13.84444427  122.24600220    4.90999985    2.40000010
   13.84777737  122.40200043    4.90999985    2.42000008
   13.85111141  114.26399994    4.90999985    2.44000006
   13.85333347  124.10099792    4.90999985    2.42000008
   13.85472298  133.64700317    4.90999985    2.40000010
   13.85805607  121.00700378    4.90999985    2.36999989
   13.86111164  122.24400330    4.90999985    2.39000010
   13.86444473  116.84300232    4.90999985    2.36999989
   13.86750031  123.83200073    4.90999985    2.32999992
   13.87083340  124.24500275    4.90999985    2.32999992
   13.87416649  119.69999695    4.90999985    2.30999994
   13.87722206  129.08599854    4.90999985    2.30999994
   13.88333321  129.08599854    4.90999985    2.28999996
   13.88749981  127.44799805    4.90999985    2.30999994
   13.89055538  116.90799713    4.90999985    2.30999994
   13.89388847  125.02799988    4.90999985    2.30999994
   13.89722252  115.73899841    4.90999985    2.32999992
   13.90027714  123.47899628    4.90999985    2.39000010
   13.90361118  126.04399872    4.90999985    2.36999989
   13.90666676  124.01999664    4.90999985    2.32999992
   13.90999985  123.79799652    4.90999985    2.32999992
   13.91333294  122.97899628    4.90999985    2.30999994
   13.91638851  127.62000275    4.90999985    2.26999998
   13.91972256  122.79299927    4.90999985    2.25000000
   13.92027855  123.22000122    4.90999985    2.25000000
   13.92611122  123.22000122    4.90999985    2.39000010
   13.93027782  124.78600311    4.90999985    2.42000008
   13.93361092  116.53500366    4.90999985    2.40000010
   13.93666649  133.84300232    4.90999985    2.40000010
   13.94000053  123.63700104    4.90999985    2.36999989
   13.94305515  131.80200195    4.90999985    2.34999990
   13.94638920  124.41400146    4.90999985    2.34999990
   13.94972229  119.65299988    4.90999985    2.40000010
   13.95277786  121.86299896    4.90999985    2.44000006
   13.95361137  120.00399780    4.90999985    2.42000008
   13.95666695  125.68800354    4.90999985    2.40000010
   13.95972157  130.78100586    4.90999985    2.40000010
   13.96305561  122.47899628    4.90999985    2.40000010
   13.96888828  122.47899628    4.90999985    2.44000006
   13.97305489  126.18800354    4.90999985    2.44000006
   13.97638798  124.04499817    4.90999985    2.46000004
   13.97944355  117.45600128    4.90999985    2.48000002
   13.98277760  115.87200165    4.90999985    2.48000002
   13.98611164  118.69100189    4.90999985    2.51999998
   13.98694515  115.50199890    4.90999985    2.50000000
   13.99000072  116.47200012    4.90999985    2.51999998
   13.99305534  109.96600342    4.90999985    2.51999998
   13.99638939  113.14499664    4.90999985    2.50000000
   13.99944496  111.71399689    4.90999985    2.50000000
   14.00277805  115.33599854    4.90999985    2.53999996
   14.00611115  114.61900330    4.90999985    2.53999996
   14.01194477  114.61900330    4.90999985    2.55999994
   14.01583290  107.58499908    4.90999985    2.55999994
   14.01916599  115.10099792    4.90999985    2.53999996
   14.02027798  113.15499878    4.90999985    2.55999994
   14.02277756  120.16100311    4.90999985    2.55999994
   14.02583313  118.73400116    4.90999985    2.53999996
   14.02916622  118.27300262    4.90999985    2.53999996
   14.03222179  113.65000153    4.90999985    2.53999996
   14.03555584  112.72299957    4.90999985    2.53999996
   14.03888893  112.17099762    4.90999985    2.55999994
   14.04194450  110.33799744    4.90999985    2.55999994
   14.04527855  109.84700012    4.90999985    2.55999994
   14.04861164  108.51499939    4.90999985    2.53999996
   14.05472279  108.51499939    4.90999985    2.55999994
   14.05888939  109.86199951    4.90999985    2.55999994
   14.06194496  109.03900146    4.90999985    2.53999996
   14.06583309  116.21700287    4.90999985    2.55999994
   14.06916618  110.31300354    4.90999985    2.53999996
   14.07250023  111.38300323    4.90999985    2.55999994
   14.07555580  112.47399902    4.90999985    2.55999994
   14.07888889  106.89199829    4.90999985    2.55999994
   14.08194447  109.21700287    4.90999985    2.55999994
   14.08527756  108.53199768    4.90999985    2.55999994
   14.08694458  112.02899933    4.90999985    2.55999994
   14.08916664  103.96199799    4.90999985    2.55999994
   14.09222221  106.96199799    4.90999985    2.55999994
   14.09749985  106.96199799    4.90999985    2.55999994
   14.10166740  113.45300293    4.90999985    2.55999994
   14.10500050  108.08399963    4.90999985    2.55999994
   14.10805607  105.43800354    4.90999985    2.55999994
   14.11138916  109.19699860    4.90999985    2.55999994
   14.11444473  100.63600159    4.90999985    2.55999994
   14.11777782  107.13800049    4.90999985    2.55999994
   14.12027836  107.39800262    4.90999985    2.55999994
   14.12166691  108.89199829    4.90999985    2.55999994
   14.12472248  105.36499786    4.90999985    2.55999994
   14.12805557  107.73899841    4.90999985    2.55999994
   14.13111115  110.42500305    4.90999985    2.55999994
   14.13444424  111.65399933    4.90999985    2.55999994
   14.14027786  111.65399933    4.90999985    2.55999994
   14.14444447  112.72399902    4.90999985    2.55999994
   14.14777756  110.46499634    4.90999985    2.55999994
   14.15083313  105.87300110    4.90999985    2.55999994
   14.15361118  113.99500275    4.90999985    2.55999994
   14.15472221  107.07399750    4.90999985    2.55999994
   14.15777779  106.80200195    4.90999985    2.55999994
   14.16111088  105.50099945    4.90999985    2.55999994
   14.16416645  109.68399811    4.90999985    2.55999994
   14.16750050  105.95999908    4.90999985    2.55999994
   14.17083359  110.12000275    4.90999985    2.57999992
   14.17388916  110.66300201    4.90999985    2.55999994
   14.17722225  109.00800323    4.90999985    2.55999994
   14.18333340  109.00800323    4.90999985    2.57999992
   14.18722248  105.63800049    4.90999985    2.57999992
   14.19055557  105.33699799    4.90999985    2.55999994
   14.19388866  111.46600342    4.90999985    2.55999994
   14.19694424  107.71499634    4.90999985    2.55999994
   14.20027733  110.27999878    4.90999985    2.55999994
   14.20333290  108.74800110    4.90999985    2.57999992
   14.20666695  109.66899872    4.90999985    2.57999992
   14.21000004  112.21700287    4.90999985    2.55999994
   14.21305561  109.11900330    4.90999985    2.57999992
   14.21638870  104.71700287    4.90999985    2.57999992
   14.21972179  105.73600006    4.90999985    2.57999992
   14.22027779  102.45700073    4.90999985    2.57999992
   14.22611046  102.45700073    4.90999985    2.55999994
   14.23027706  103.92600250    4.90999985    2.57999992
   14.23333359  108.93299866    4.90999985    2.57999992
   14.23666668  101.34600067    4.90999985    2.57999992
   14.23972225  104.91899872    4.90999985    2.57999992
   14.24305534  106.17199707    4.90999985    2.57999992
   14.24638939  106.59400177    4.90999985    2.57999992
   14.24944496  112.61499786    4.90999985    2.57999992
   14.25277805  109.40200043    4.90999985    2.57999992
   14.25361156  104.77200317    4.90999985    2.57999992
   14.25638866  104.19499969    4.90999985    2.57999992
   14.25944424  111.65399933    4.90999985    2.57999992
   14.26277733  110.29499817    4.90999985    2.57999992
   14.26888847  110.29499817    4.90999985    2.57999992
   14.27305508  105.26300049    4.90999985    2.57999992
   14.27611065  109.54199982    4.90999985    2.57999992
   14.27944374  108.68000031    4.90999985    2.57999992
   14.28277779  104.24199677    4.90999985    2.57999992
   14.28583336  108.54599762    4.90999985    2.57999992
   14.28694534  101.19000244    4.90999985    2.59999990
   14.28972244  111.50000000    4.90999985    2.57999992
   14.29277802  107.65399933    4.90999985    2.59999990
   14.29611111  107.83200073    4.90999985    2.59999990
   14.29944515  104.86299896    4.90999985    2.57999992
   14.30249977  109.51399994    4.90999985    2.59999990
   14.30583382  107.03500366    4.90999985    2.57999992
   14.31166649  107.03500366    4.90999985    2.57999992
   14.31583309  107.77400208    4.90999985    2.59999990
   14.31916618  102.44100189    4.90999985    2.57999992
   14.32027817  103.69400024    4.90999985    2.57999992
   14.32277775  105.95099640    4.90999985    2.59999990
   14.32583332  108.77600098    4.90999985    2.57999992
   14.32916641  108.77200317    4.90999985    2.57999992
   14.33249950  104.69100189    4.90999985    2.59999990
   14.33555508  100.91100311    4.90999985    2.57999992
   14.33888817  106.50399780    4.90999985    2.59999990
   14.34194374  103.21199799    4.90999985    2.59999990
   14.34527779  102.31500244    4.90999985    2.59999990
   14.34861088  100.75900269    4.90999985    2.59999990
   14.35444450  100.75900269    4.90999985    2.59999990
   14.35861111  110.21800232    4.90999985    2.59999990
   14.36194515  110.39399719    4.90999985    2.59999990
   14.36527824  104.17099762    4.90999985    2.59999990
   14.36833382  106.27799988    4.90999985    2.59999990
   14.37166691  105.21499634    4.90999985    2.59999990
   14.37472248  105.38899994    4.90999985    2.59999990
   14.37805557  104.73799896    4.90999985    2.59999990
   14.38138866  106.70899963    4.90999985    2.59999990
   14.38444424  103.87599945    4.90999985    2.61999989
   14.38694477  106.87599945    4.90999985    2.59999990
   14.38833332  102.28500366    4.90999985    2.59999990
   14.39138889  112.29499817    4.90999985    2.59999990
   14.39750004  112.29499817    4.90999985    2.59999990
   14.40166664  105.81199646    4.90999985    2.59999990
   14.40472221  105.90499878    4.90999985    2.59999990
   14.40805531  102.54900360    4.90999985    2.59999990
   14.41111088  104.42500305    4.90999985    2.59999990
   14.41444397  102.99700165    4.90999985    2.59999990
   14.41777802  100.55100250    4.90999985    2.59999990
   14.42027855  104.30699921    4.90999985    2.59999990
   14.42138958  105.77200317    4.90999985    2.59999990
   14.42444515  107.69899750    4.90999985    2.61999989
   14.42777824  105.62899780    4.90999985    2.61999989
   14.43111134  105.33599854    4.90999985    2.61999989
   14.43416691  105.64099884    4.90999985    2.59999990
   14.44027805  105.64099884    4.90999985    2.59999990
   14.44444466  108.14900208    4.90999985    2.59999990
   14.44750023  104.85800171    4.90999985    2.59999990
   14.45083332  102.33200073    4.90999985    2.61999989
   14.45361137  104.31500244    4.90999985    2.59999990
   14.45444393  101.12000275    4.90999985    2.61999989
   14.45749950  102.92900085    4.90999985    2.61999989
   14.46083355  106.70099640    4.90999985    2.61999989
   14.46416664  101.19100189    4.90999985    2.61999989
   14.46722221   98.30740356    4.90999985    2.61999989
   14.47055531  102.62500000    4.90999985    2.61999989
   14.47361088   99.02290344    4.90999985    2.59999990
   14.47694397  101.71900177    4.90999985    2.59999990
   14.48305511  101.71900177    4.90999985    2.61999989
   14.48722267  103.01100159    4.90999985    2.59999990
   14.49055576   94.83969879    4.90999985    2.61999989
   14.49361134  102.91100311    4.90999985    2.61999989
   14.49694443  107.11799622    4.90999985    2.61999989
   14.50027752  111.04799652    4.90999985    2.61999989
   14.50333309  105.17500305    4.90999985    2.61999989
   14.50666714  104.54900360    4.90999985    2.61999989
   14.51000023  109.22499847    4.90999985    2.61999989
   14.51305580  111.50099945    4.90999985    2.61999989
   14.51638889  102.27100372    4.90999985    2.61999989
   14.51944447  101.13500214    4.90999985    2.61999989
   14.52027798  101.01799774    4.90999985    2.61999989
   14.52611065  101.01799774    4.90999985    2.61999989
   14.52999973  102.47299957    4.90999985    2.61999989
   14.53333378  101.53500366    4.90999985    2.61999989
   14.53666687  103.21900177    4.90999985    2.61999989
   14.53972244  101.73799896    4.90999985    2.61999989
   14.54305553   97.87750244    4.90999985    2.61999989
   14.54638958  102.26300049    4.90999985    2.61999989
   14.54944515  105.37899780    4.90999985    2.61999989
   14.55277824  102.63800049    4.90999985    2.61999989
   14.55361176   99.68160248    4.90999985    2.61999989
   14.55638885   98.91989899    4.90999985    2.61999989
   14.55944443  100.22499847    4.90999985    2.61999989
   14.56277752   97.15329742    4.90999985    2.61999989
   14.56888866   97.15329742    4.90999985    2.61999989
   14.57305527  100.18000031    4.90999985    2.64000010
   14.57611084  101.51899719    4.90999985    2.64000010
   14.57944393   95.08280182    4.90999985    2.61999989
   14.58249950  110.66000366    4.90999985    2.61999989
   14.58583260  104.26699829    4.90999985    2.61999989
   14.58694458  104.56700134    4.90999985    2.61999989
   14.58944416  107.20899963    4.90999985    2.61999989
   14.59249973  102.50499725    4.90999985    2.64000010
   14.59583282  100.13400269    4.90999985    2.61999989
   14.59916592  106.39800262    4.90999985    2.64000010
   14.60222244  103.62799835    4.90999985    2.64000010
   14.60555553   98.49279785    4.90999985    2.64000010
   14.61166668   98.49279785    4.90999985    2.61999989
   14.61583328   98.67829895    4.90999985    2.61999989
   14.61888885  100.97200012    4.90999985    2.61999989
   14.62027836  106.16100311    4.90999985    2.61999989
   14.62277794  101.34100342    4.90999985    2.61999989
   14.62583351   98.55650330    4.90999985    2.61999989
   14.62916660   99.80960083    4.90999985    2.64000010
   14.63249969  100.50599670    4.90999985    2.61999989
   14.63555527   94.68840027    4.90999985    2.64000010
   14.63888836   99.16549683    4.90999985    2.64000010
   14.64222240  106.42199707    4.90999985    2.64000010
   14.64527798   99.80419922    4.90999985    2.61999989
   14.64861107   97.45510101    4.90999985    2.61999989
   14.65444374   97.45510101    4.90999985    2.61999989
   14.65861034   95.03450012    4.90999985    2.61999989
   14.66194439   92.43240356    4.90999985    2.61999989
   14.66499996   96.89579773    4.90999985    2.61999989
   14.66833401  103.21299744    4.90999985    2.64000010
   14.67166710  101.34100342    4.90999985    2.64000010
   14.67472267   90.14890289    4.90999985    2.61999989
   14.67805576   99.55370331    4.90999985    2.61999989
   14.68111134   96.35579681    4.90999985    2.61999989
   14.68444443  106.37100220    4.90999985    2.64000010
   14.68694496  102.88800049    4.90999985    2.64000010
   14.68805599   96.38710022    4.90999985    2.64000010
   14.69111156   96.08760071    4.90999985    2.61999989
   14.69722271   96.08760071    4.90999985    2.64000010
   14.70138836  102.95300293    4.90999985    2.64000010
   14.70472240   98.65840149    4.90999985    2.64000010
   14.70833302   95.85040283    4.90999985    2.64000010
   14.71138859   99.72850037    4.90999985    2.64000010
   14.71472168   95.04049683    4.90999985    2.64000010
   14.71805477  101.27300262    4.90999985    2.64000010
   14.72027779   97.31150055    4.90999985    2.64000010
   14.72166634   98.17130280    4.90999985    2.64000010
   14.72499943   94.44670105    4.90999985    2.64000010
   14.72805500   91.19049835    4.90999985    2.64000010
   14.73138809  100.45400238    4.90999985    2.64000010
   14.73444462  100.10099792    4.90999985    2.64000010
   14.74027824  100.10099792    4.90999985    2.64000010
   14.74444485   99.20030212    4.90999985    2.64000010
   14.74750042   98.71779633    4.90999985    2.64000010
   14.75083351   95.94029999    4.90999985    2.64000010
   14.75361156  100.11699677    4.90999985    2.64000010
   14.75444412   93.92929840    4.90999985    2.64000010
   14.75777817   98.56700134    4.90999985    2.64000010
   14.76083374  100.45999908    4.90999985    2.64000010
   14.76416683   95.28880310    4.90999985    2.64000010
   14.76722240   95.18939972    4.90999985    2.64000010
   14.77055550   90.89170074    4.90999985    2.64000010
   14.77388859   97.37079620    4.90999985    2.64000010
   14.77694416   96.33630371    4.90999985    2.64000010
   14.78305531   96.33630371    4.90999985    2.64000010
   14.78722286   91.76689911    4.90999985    2.64000010
   14.79027843   91.12329865    4.90999985    2.64000010
   14.79361153   93.69619751    4.90999985    2.64000010
   14.79694462   98.75559998    4.90999985    2.64000010
   14.80000019   97.76920319    4.90999985    2.64000010
   14.80333328   98.84349823    4.90999985    2.64000010
   14.80666733  101.54399872    4.90999985    2.64000010
   14.80972195  100.80699921    4.90999985    2.66000009
   14.81305599   96.52259827    4.90999985    2.64000010
   14.81611156   95.06639862    4.90999985    2.66000009
   14.81944466   98.52010345    4.90999985    2.64000010
   14.82027817   96.00160217    4.90999985    2.64000010
   14.84111118   96.00160217    4.90999985    2.64000010
   14.84527779   94.37129974    4.90999985    2.66000009
   14.84833336   96.28459930    4.90999985    2.66000009
   14.85166740   91.42160034    4.90999985    2.64000010
   14.85361195   91.20010376    4.90999985    2.66000009
   14.85527802   97.58139801    4.90999985    2.64000010
   14.85861111   91.95829773    4.90999985    2.66000009
   14.86194515   92.18039703    4.90999985    2.66000009
   14.86500072   98.28250122    4.90999985    2.66000009
   14.86833382   92.10019684    4.90999985    2.66000009
   14.87138939   97.19979858    4.90999985    2.66000009
   14.87472248   87.40560150    4.90999985    2.66000009
   14.87805557   90.76570129    4.90999985    2.66000009
   14.88388920   90.76570129    4.90999985    2.66000009
   14.88777733   94.31690216    4.90999985    2.64000010
   14.89111137   95.70310211    4.90999985    2.66000009
   14.89444447   95.61990356    4.90999985    2.66000009
   14.89750004   91.42340088    4.90999985    2.66000009
   14.90083313   95.46700287    4.90999985    2.64000010
   14.90416622   91.04589844    4.90999985    2.66000009
   14.90722179   95.24500275    4.90999985    2.66000009
   14.91055489   96.24379730    4.90999985    2.64000010
   14.91361046   91.40899658    4.90999985    2.66000009
   14.91722298   93.52179718    4.90999985    2.66000009
   14.92027855   94.36150360    4.90999985    2.66000009
   14.92111111   96.02670288    4.90999985    2.66000009
   14.92666721   96.02670288    4.90999985    2.66000009
   14.93083382   98.45220184    4.90999985    2.66000009
   14.93388939   89.20970154    4.90999985    2.66000009
   14.93722248   94.42559814    4.90999985    2.66000009
   14.94055557   92.47760010    4.90999985    2.66000009
   14.94361115   98.46019745    4.90999985    2.64000010
   14.94694424   96.00209808    4.90999985    2.64000010
   14.94999981   92.70649719    4.90999985    2.66000009
   14.95333290   96.19010162    4.90999985    2.66000009
   14.95388889   96.25980377    4.90999985    2.66000009
   14.95722198   93.30960083    4.90999985    2.66000009
   14.96027756   92.94889832    4.90999985    2.64000010
   14.96361065   94.26889801    4.90999985    2.66000009
   14.96944427   94.26889801    4.90999985    2.66000009
   14.97361088   93.73999786    4.90999985    2.66000009
   14.97694397   90.43740082    4.90999985    2.66000009
   14.97999954   92.88780212    4.90999985    2.66000009
   14.98333359   93.14330292    4.90999985    2.66000009
   14.98638916   91.45880127    4.90999985    2.66000009
   14.98722267   89.15139771    4.90999985    2.66000009
   14.99027824   92.75849915    4.90999985    2.66000009
   14.99333382   89.78990173    4.90999985    2.66000009
   14.99666691   88.04370117    4.90999985    2.66000009
   15.00000000   90.71990204    4.90999985    2.66000009
   15.00305557   87.03720093    4.90999985    2.66000009
   15.00638866   91.24909973    4.90999985    2.66000009
   15.01222229   91.24909973    4.90999985    2.66000009
   15.01638889   85.51010132    4.90999985    2.66000009
   15.01972198   95.41249847    4.90999985    2.66000009
   15.02055550   93.90670013    4.90999985    2.66000009
   15.02333355   91.77249908    4.90999985    2.66000009
   15.02638817   88.76689911    4.90999985    2.66000009
   15.02972221   88.40409851    4.90999985    2.66000009
   15.03277779   89.57779694    4.90999985    2.66000009
   15.03611183   99.30079651    4.90999985    2.67000008
   15.03944492   94.41459656    4.90999985    2.66000009
   15.04250050   92.94609833    4.90999985    2.66000009
   15.04583359   88.92970276    4.90999985    2.66000009
   15.04916668   95.43930054    4.90999985    2.67000008
   15.05500031   95.43930054    4.90999985    2.66000009
   15.05916691   87.79730225    4.90999985    2.66000009
   15.06250000   88.00849915    4.90999985    2.66000009
   15.06583309   92.22039795    4.90999985    2.66000009
   15.06888866   92.54350281    4.90999985    2.66000009
   15.07222176   95.96540070    4.90999985    2.66000009
   15.07527733   89.00820160    4.90999985    2.66000009
   15.07861137   93.14299774    4.90999985    2.66000009
   15.08194447  100.30500031    4.90999985    2.66000009
   15.08500004   97.02320099    4.90999985    2.67000008
   15.08722210   95.54010010    4.90999985    2.67000008
   15.08888817   96.86810303    4.90999985    2.67000008
   15.09194374   92.76010132    4.90999985    2.67000008
   15.09805489   92.76010132    4.90999985    2.67000008
   15.10222244   89.83159637    4.90999985    2.67000008
   15.10527802   98.28260040    4.90999985    2.66000009
   15.10861111   99.36270142    4.90999985    2.66000009
   15.11194515   90.31690216    4.90999985    2.66000009
   15.11500072   95.71679688    4.90999985    2.67000008
   15.11833382   96.93019867    4.90999985    2.67000008
   15.12055588   94.19480133    4.90999985    2.66000009
   15.12194443   91.30039978    4.90999985    2.66000009
   15.12500000   94.55010223    4.90999985    2.66000009
   15.12833309   88.80130005    4.90999985    2.66000009
   15.13166714   97.55770111    4.90999985    2.67000008
   15.13472176   92.08560181    4.90999985    2.67000008
   15.14083290   92.08560181    4.90999985    2.66000009
   15.14499950   89.57330322    4.90999985    2.66000009
   15.14833355   90.25240326    4.90999985    2.66000009
   15.15138817   96.14869690    4.90999985    2.67000008
   15.15388870   85.72530365    4.90999985    2.67000008
   15.15527725   88.53639984    4.90999985    2.67000008
   15.15833282   95.25530243    4.90999985    2.67000008
   15.16166592   92.70780182    4.90999985    2.67000008
   15.16499996   85.50779724    4.90999985    2.67000008
   15.16805553   91.51170349    4.90999985    2.67000008
   15.17138958   98.14389801    4.90999985    2.66000009
   15.17444515   96.74510193    4.90999985    2.67000008
   15.17777824   91.49179840    4.90999985    2.67000008
   15.18361092   91.49179840    4.90999985    2.67000008
   15.18777752   89.28379822    4.90999985    2.67000008
   15.19111156   94.45680237    4.90999985    2.67000008
   15.19416714   87.53739929    4.90999985    2.67000008
   15.19750023   87.09899902    4.90999985    2.67000008
   15.20083332   91.22460175    4.90999985    2.66000009
   15.20388889   94.14810181    4.90999985    2.67000008
   15.20722198   88.72170258    4.90999985    2.67000008
   15.21055508   90.56439972    4.90999985    2.66000009
   15.21361065   97.44400024    4.90999985    2.67000008
   15.21694374   91.24890137    4.90999985    2.67000008
   15.21999931   92.15750122    4.90999985    2.67000008
   15.22055531   94.90509796    4.90999985    2.66000009
   15.22666645   94.90509796    4.90999985    2.67000008
   15.23055553   91.78679657    4.90999985    2.67000008
   15.23388958   91.65360260    4.90999985    2.67000008
   15.23722267   87.83930206    4.90999985    2.66000009
   15.24027824   90.26889801    4.90999985    2.67000008
   15.24361134   92.84190369    4.90999985    2.67000008
   15.24694443   95.84639740    4.90999985    2.67000008
   15.25000000   99.88410187    4.90999985    2.67000008
   15.25333309   89.51219940    4.90999985    2.66000009
   15.25388908   89.51270294    4.90999985    2.67000008
   15.25694466   95.92179871    4.90999985    2.67000008
   15.26027775   90.88760376    4.90999985    2.67000008
   15.26333332   97.75340271    4.90999985    2.67000008
   15.26944447   97.75340271    4.90999985    2.67000008
   15.27361107   92.81960297    4.90999985    2.69000006
   15.27666664   96.04759979    4.90999985    2.67000008
   15.27999973   89.86129761    4.90999985    2.66000009
   15.28333378   91.43080139    4.90999985    2.69000006
   15.28638935   86.57230377    4.90999985    2.66000009
   15.28750038   91.67019653    4.90999985    2.64000010
   15.29000092   93.62310028    4.90999985    2.61999989
   15.29333401   94.78880310    4.90999985    2.69000006
   15.29666710   92.44429779    4.90999985    2.66000009
   15.29972267   92.57460022    4.90999985    2.66000009
   15.30305576   87.05660248    4.90999985    2.66000009
   15.30611134   90.78500366    4.90999985    2.67000008
   15.31222248   90.78500366    4.90999985    2.55999994
   15.31638908   96.54669952    4.90999985    2.55999994
   15.31972218   83.06069946    4.90999985    2.66000009
   15.32083321   85.21730042    4.90999985    2.57999992
   15.32305527   94.65350342    4.90999985    2.51999998
   15.32638836   88.86699677    4.90999985    2.59999990
   15.32972240   94.53099823    4.90999985    2.67000008
   15.33277798   93.52839661    4.90999985    2.67000008
   15.33611107   89.98629761    4.90999985    2.67000008
   15.33916664   96.88210297    4.90999985    2.67000008
   15.34249973   94.69719696    4.90999985    2.67000008
   15.34583282   92.19390106    4.90999985    2.69000006
   15.34888840   85.64029694    4.90999985    2.69000006
   15.35527802   85.64029694    4.90999985    2.69000006
   15.35916710   93.30059814    4.90999985    2.69000006
   15.36250019   92.35230255    4.90999985    2.71000004
   15.36416721  107.32800293    4.90999985    2.64000010
   15.36750031  110.11499786    4.90999985    2.25000000
   15.37083340   95.92919922    4.90999985    2.23000002
   15.37388897   92.74359894    4.90999985    2.57999992
   15.37722206  104.81300354    4.90999985    2.61999989
   15.38055611   92.84210205    4.90999985    2.34999990
   15.38361073   91.87560272    4.90999985    2.46000004
   15.38583279   98.12400055    4.90999985    2.71000004
   15.38722229   97.73799896    4.90999985    2.64000010
   15.39055538   97.98590088    4.90999985    2.55999994
   15.39666653   97.98590088    4.90999985    2.67000008
   15.40055561   93.30460358    4.90999985    2.69000006
   15.40388870   93.22519684    4.90999985    2.69000006
   15.40722179   94.57949829    4.90999985    2.69000006
   15.41027737   82.95390320    4.90999985    2.69000006
   15.41361046   93.48819733    4.90999985    2.69000006
   15.41694450   89.61789703    4.90999985    2.67000008
   15.41916656   93.31780243    4.90999985    2.69000006
   15.42055607   92.55699921    4.90999985    2.67000008
   15.42388916   97.64880371    4.90999985    2.69000006
   15.42694473   89.66249847    4.90999985    2.69000006
   15.43027782   95.12519836    4.90999985    2.69000006
   15.43361092   98.37819672    4.90999985    2.69000006
   15.43944454   98.37819672    4.90999985    2.67000008
   15.44361115   91.74040222    4.90999985    2.66000009
   15.44805527  100.47100067    4.90999985    2.69000006
   15.45138836   92.53359985    4.90999985    2.67000008
   15.45388889   99.85079956    4.90999985    2.69000006
   15.45499992   92.34819794    4.90999985    2.67000008
   15.45833302   93.09279633    4.90999985    2.67000008
   15.46138859   98.63829803    4.90999985    2.67000008
   15.46472168   90.70410156    4.90999985    2.67000008
   15.46805477   95.29170227    4.90999985    2.69000006
   15.47111034   89.65529633    4.90999985    2.69000006
   15.47444439   91.25430298    4.90999985    2.69000006
   15.47749996   93.11180115    4.90999985    2.69000006
   15.48361111   93.11180115    4.90999985    2.69000006
   15.48777771   94.09780121    4.90999985    2.69000006
   15.49111176   95.63320160    4.90999985    2.69000006
   15.49416733   92.39189911    4.90999985    2.69000006
   15.49750042   89.62999725    4.90999985    2.69000006
   15.50055599   95.47630310    4.90999985    2.71000004
   15.59666634   -1.00000000   -1.00000000   -1.00000000
   15.71666622   -1.00000000   -1.00000000   -1.00000000
   15.94305515   -1.00000000   -1.00000000   -1.00000000
   16.01194382   76.57959747    4.90999985    2.71000004
   16.01527786   92.53869629    4.90999985    2.71000004
   16.01833344   95.56900024    4.90999985    2.73000002
   16.02166557  101.79399872    4.90999985    2.71000004
   16.02472115   95.01670074    4.90999985    2.69000006
   16.02805519   99.83930206    4.90999985    2.69000006
   16.03222275   99.83930206    4.90999985    2.71000004
   16.03638840   92.87590027    4.90999985    2.69000006
   16.03944397   92.04679871    4.90999985    2.69000006
   16.04277802   92.65899658    4.90999985    2.67000008
   16.04527664   88.09439850    4.90999985    2.66000009
   16.04638863   89.25370026    4.90999985    2.67000008
   16.04972076  102.54000092    4.90999985    2.71000004
   16.05305481  107.27500153    4.90999985    2.71000004
   16.05611038   94.72499847    4.90999985    2.73000002
   16.05944443   98.76840210    4.90999985    2.71000004
   16.06250000   92.61679840    4.90999985    2.71000004
   16.06583214   92.52839661    4.90999985    2.71000004
   16.06916809  100.91500092    4.90999985    2.69000006
   16.07500076  100.91500092    4.90999985    2.69000006
   16.07916832   95.83439636    4.90999985    2.71000004
   16.08222389   97.46849823    4.90999985    2.67000008
   16.08555603   93.57559967    4.90999985    2.69000006
   16.08889008   90.30909729    4.90999985    2.71000004
   16.09194565   86.89150238    4.90999985    2.71000004
   16.09527779   98.77239990    4.90999985    2.71000004
   16.09861183  104.78399658    4.90999985    2.71000004
   16.10166740   98.68489838    4.90999985    2.66000009
   16.10499954   89.98459625    4.90999985    2.67000008
   16.10805511   96.66200256    4.90999985    2.66000009
   16.11138916   90.02590179    4.90999985    2.66000009
   16.11194420   91.10659790    4.90999985    2.66000009
   16.11805534   91.10659790    4.90999985    2.69000006
   16.12194443   92.38520050    4.90999985    2.69000006
   16.12527847   90.42910004    4.90999985    2.69000006
   16.12861061   93.36979675    4.90999985    2.71000004
   16.13166618   92.53320313    4.90999985    2.69000006
   16.13500023   96.89589691    4.90999985    2.71000004
   16.13805580   93.80200195    4.90999985    2.71000004
   16.14138794  101.35500336    4.90999985    2.69000006
   16.14472198   89.98120117    4.90999985    2.69000006
   16.14527702   89.90229797    4.90999985    2.69000006
   16.14833260   88.23400116    4.90999985    2.69000006
   16.15166664   93.92389679    4.90999985    2.67000008
   16.15472221   91.06700134    4.90999985    2.69000006
   16.16083336   91.06700134    4.90999985    2.69000006
   16.16499901   89.48040009    4.90999985    2.71000004
   16.16805458   86.92150116    4.90999985    2.71000004
   16.17138863   86.42919922    4.90999985    2.69000006
   16.17444420   87.02680206    4.90999985    2.71000004
   16.17777634   90.89240265    4.90999985    2.71000004
   16.17860985   81.12229919    4.90999985    2.71000004
   16.18138885   88.11430359    4.90999985    2.71000004
   16.18472099   88.65769958    4.90999985    2.71000004
   16.18777657   92.54070282    4.90999985    2.69000006
   16.19111061   94.60569763    4.90999985    2.69000006
   16.19444275   91.69539642    4.90999985    2.69000006
   16.19749832   90.33799744    4.90999985    2.69000006
   16.20361137   90.33799744    4.90999985    2.67000008
   16.20777893   95.43759918    4.90999985    2.67000008
   16.21111107   92.72160339    4.90999985    2.69000006
   16.21194458   88.97129822    4.90999985    2.69000006
   16.21472359   85.83769989    4.90999985    2.69000006
   16.21805573   87.81629944    4.90999985    2.71000004
   16.22111130   91.69999695    4.90999985    2.71000004
   16.22444534   90.84470367    4.90999985    2.71000004
   16.22777748   86.68990326    4.90999985    2.69000006
   16.23083305   91.70539856    4.90999985    2.71000004
   16.23416710   96.58879852    4.90999985    2.71000004
   16.23722267   98.50759888    4.90999985    2.67000008
   16.24055672   96.38420105    4.90999985    2.64000010
   16.24638939   96.38420105    4.90999985    2.61999989
   16.25055504   90.59259796    4.90999985    2.66000009
   16.25388908   93.32869720    4.90999985    2.71000004
   16.25694466   94.10949707    4.90999985    2.69000006
   16.26027870   91.86180115    4.90999985    2.69000006
   16.26361084   85.69830322    4.90999985    2.71000004
   16.26666641   90.88169861    4.90999985    2.71000004
   16.27000046   90.67310333    4.90999985    2.71000004
   16.27305603   89.04199982    4.90999985    2.73000002
   16.27638817   86.78389740    4.90999985    2.71000004
   16.27861023   91.80670166    4.90999985    2.69000006
   16.28000069   88.47109985    4.90999985    2.71000004
   16.28333282   90.95690155    4.90999985    2.71000004
   16.28944397   90.95690155    4.90999985    2.71000004
   16.29333305   97.44360352    4.90999985    2.71000004
   16.29666710   98.03780365    4.90999985    2.71000004
   16.29999924   91.11460114    4.90999985    2.71000004
   16.30305481   94.35140228    4.90999985    2.71000004
   16.30638885   88.58380127    4.90999985    2.73000002
   16.30944443   94.33940125    4.90999985    2.71000004
   16.31194305   91.64160156    4.90999985    2.71000004
   16.31333351   91.08799744    4.90999985    2.71000004
   16.31666756   83.62079620    4.90999985    2.71000004
   16.31972313   88.79370117    4.90999985    2.71000004
   16.32305717   85.15360260    4.90999985    2.71000004
   16.32638931   84.85510254    4.90999985    2.69000006
   16.33222389   84.85510254    4.90999985    2.71000004
   16.33638954   86.89350128    4.90999985    2.71000004
   16.33944511   86.92250061    4.90999985    2.71000004
   16.34277916   88.59829712    4.90999985    2.71000004
   16.34527779   87.98030090    4.90999985    2.71000004
   16.34638977   87.53369904    4.90999985    2.71000004
   16.34972191  109.62000275    4.90999985    2.71000004
   16.35277748   97.85900116    4.90999985    2.73000002
   16.35611153  109.38899994    4.90999985    2.73000002
   16.35916710  101.83599854    4.90999985    2.71000004
   16.36250114  100.02899933    4.90999985    2.71000004
   16.36583328   98.33760071    4.90999985    2.71000004
   16.36888885   96.23619843    4.90999985    2.73000002
   16.37500000   96.23619843    4.90999985    2.71000004
   16.37916756  101.51899719    4.90999985    2.71000004
   16.38222313  110.55699921    4.90999985    2.71000004
   16.38555527  106.42800140    4.90999985    2.71000004
   16.38888931   94.36350250    4.90999985    2.71000004
   16.39194489  107.95700073    4.90999985    2.71000004
   16.39527702   96.49790192    4.90999985    2.71000004
   16.39861107   97.13580322    4.90999985    2.71000004
   16.40166664   96.67530060    4.90999985    2.73000002
   16.40499878   95.58920288    4.90999985    2.71000004
   16.40805435   87.89320374    4.90999985    2.71000004
   16.41138840   92.69650269    4.90999985    2.71000004
   16.41194344   98.98549652    4.90999985    2.71000004
   16.41777802   98.98549652    4.90999985    2.71000004
   16.42194366  105.72599792    4.90999985    2.71000004
   16.42527771  120.45300293    4.90999985    2.71000004
   16.42833328  111.37999725    4.90999985    2.71000004
   16.43166542  114.78500366    4.90999985    2.73000002
   16.43499947  102.52999878    4.90999985    2.73000002
   16.43805504  107.63500214    4.90999985    2.71000004
   16.44138718  138.15400696    4.90999985    2.71000004
   16.44472122  141.25100708    4.90999985    2.71000004
   16.44527626  156.35299683    4.90999985    2.73000002
   16.44833183  130.92399597    4.90999985    2.71000004
   16.45166779  126.31999969    4.90999985    2.71000004
   16.45472336  133.64300537    4.90999985    2.71000004
   16.46055603  133.64300537    4.90999985    2.71000004
   16.46472359  120.40799713    4.90999985    2.71000004
   16.46805573  119.07800293    4.90999985    2.71000004
   16.47138977  125.14099884    4.90999985    2.71000004
   16.47444534  117.15599823    4.90999985    2.71000004
   16.47777748  115.50700378    4.90999985    2.71000004
   16.47861099  114.99600220    4.90999985    2.71000004
   16.48139000  109.18900299    4.90999985    2.71000004
   16.48472214  120.87799835    4.90999985    2.71000004
   16.48777771  117.69899750    4.90999985    2.71000004
   16.49111176  121.42400360    4.90999985    2.71000004
   16.49444389  118.51000214    4.90999985    2.71000004
   16.49749947  116.79299927    4.90999985    2.73000002
   16.50361061  116.79299927    4.90999985    2.73000002
   16.50777817  103.91899872    4.90999985    2.71000004
   16.51083374  110.28299713    4.90999985    2.71000004
   16.51194382  112.66899872    4.90999985    2.71000004
   16.51444435  117.25800323    4.90999985    2.71000004
   16.51777840  119.14900208    4.90999985    2.71000004
   16.52111053  113.63099670    4.90999985    2.71000004
   16.52416611  102.02300262    4.90999985    2.69000006
   16.52750015  106.34400177    4.90999985    2.71000004
   16.53055573  100.57499695    4.90999985    2.71000004
   16.53388786   96.59249878    4.90999985    2.71000004
   16.53722191  100.06400299    4.90999985    2.71000004
   16.54027748   95.61579895    4.90999985    2.71000004
   16.54638863   95.61579895    4.90999985    2.71000004
   16.55055428   90.49150085    4.90999985    2.71000004
   16.55360985   96.39720154    4.90999985    2.71000004
   16.55694389   94.39990234    4.90999985    2.71000004
   16.56027794   95.39489746    4.90999985    2.71000004
   16.56333351   95.95269775    4.90999985    2.71000004
   16.56666756   97.69069672    4.90999985    2.71000004
   16.57000160   97.87670135    4.90999985    2.71000004
   16.57305717   98.35389709    4.90999985    2.71000004
   16.57638931  101.92199707    4.90999985    2.71000004
   16.57888985   97.66130066    4.90999985    2.69000006
   16.58000183   97.16560364    4.90999985    2.71000004
   16.58333397   93.62819672    4.90999985    2.71000004
   16.58916664   93.62819672    4.90999985    2.71000004
   16.59333420  100.29000092    4.90999985    2.71000004
   16.59666824   92.36129761    4.90999985    2.71000004
   16.59972191  100.45999908    4.90999985    2.71000004
   16.60305595   94.92359924    4.90999985    2.71000004
   16.60639000   96.00330353    4.90999985    2.71000004
   16.60944557   93.58029938    4.90999985    2.71000004
   16.61222267   94.00559998    4.90999985    2.71000004
   16.61305618   91.28749847    4.90999985    2.71000004
   16.61638832   90.32070160    4.90999985    2.71000004
   16.61944389   93.29509735    4.90999985    2.69000006
   16.62277794   93.34690094    4.90999985    2.69000006
   16.62611198   92.46859741    4.90999985    2.71000004
   16.63194466   92.46859741    4.90999985    2.71000004
   16.63611031   94.42839813    4.90999985    2.69000006
   16.63944435   91.49960327    4.90999985    2.69000006
   16.64277840   92.65799713    4.90999985    2.71000004
   16.64555550   91.79840088    4.90999985    2.71000004
   16.64638901   90.19629669    4.90999985    2.71000004
   16.64972115   90.79750061    4.90999985    2.71000004
   16.65277672   98.04859924    4.90999985    2.71000004
   16.65611076   90.97149658    4.90999985    2.71000004
   16.65944481   90.87380219    4.90999985    2.71000004
   16.66250038  102.84200287    4.90999985    2.71000004
   16.66583252   97.22329712    4.90999985    2.71000004
   16.66916656   93.47640228    4.90999985    2.71000004
   16.67499924   93.47640228    4.90999985    2.71000004
   16.67916679   91.21900177    4.90999985    2.71000004
   16.68222237   95.85790253    4.90999985    2.71000004
   16.68555450   91.74500275    4.90999985    2.71000004
   16.68861008   90.12409973    4.90999985    2.71000004
   16.69194412   93.19200134    4.90999985    2.71000004
   16.69527626   99.71880341    4.90999985    2.71000004
   16.69833183   94.25080109    4.90999985    2.71000004
   16.70166779   97.46040344    4.90999985    2.71000004
   16.70499992   94.08429718    4.90999985    2.71000004
   16.70805550   96.59570313    4.90999985    2.73000002
   16.71138954   96.35959625    4.90999985    2.73000002
   16.71222305   94.99060059    4.90999985    2.73000002
   16.71777916   94.99060059    4.90999985    2.71000004
   16.72194481   95.38739777    4.90999985    2.69000006
   16.72500038  102.84300232    4.90999985    2.67000008
   16.72833443   93.38020325    4.90999985    2.66000009
   16.73166656   96.38120270    4.90999985    2.66000009
   16.73472214  103.12200165    4.90999985    2.66000009
   16.73805618  104.39399719    4.90999985    2.64000010
   16.74111176   98.10590363    4.90999985    2.61999989
   16.74444389   97.47830200    4.90999985    2.67000008
   16.74555588   98.65489960    4.90999985    2.67000008
   16.74805641   98.94339752    4.90999985    2.69000006
   16.75138855   98.19609833    4.90999985    2.69000006
   16.75444412   98.61589813    4.90999985    2.69000006
   16.76055527   98.61589813    4.90999985    2.64000010
   16.76472282   92.79550171    4.90999985    2.69000006
   16.76805496   91.27369690    4.90999985    2.64000010
   16.77111053   91.63159943    4.90999985    2.61999989
   16.77444458   99.07559967    4.90999985    2.64000010
   16.77777672  101.25900269    4.90999985    2.51999998
   16.77888870  109.49400330    4.90999985    2.50000000
   16.78111076   99.21779633    4.90999985    2.48000002
   16.78444481   95.60250092    4.90999985    2.46000004
   16.78750038   97.59529877    4.90999985    2.69000006
   16.79083252  100.62200165    4.90999985    2.69000006
   16.79416656   97.35780334    4.90999985    2.67000008
   16.79722214   94.63649750    4.90999985    2.66000009
   16.80333328   94.63649750    4.90999985    2.71000004
   16.80749893   96.91000366    4.90999985    2.73000002
   16.81083298   98.85109711    4.90999985    2.71000004
   16.81222153   94.02729797    4.90999985    2.71000004
   16.81444359   96.78949738    4.90999985    2.71000004
   16.81777954   91.89320374    4.90999985    2.71000004
   16.82083511   98.52059937    4.90999985    2.71000004
   16.82416725   95.85449982    4.90999985    2.71000004
   16.82750130   96.52459717    4.90999985    2.71000004
   16.83055687   93.80519867    4.90999985    2.71000004
   16.83388901   94.68740082    4.90999985    2.71000004
   16.83722305   98.40319824    4.90999985    2.71000004
   16.84027863   96.80310059    4.90999985    2.71000004
   16.84638977   96.80310059    4.90999985    2.71000004
   16.85027885   95.44619751    4.90999985    2.71000004
   16.85361099   94.15679932    4.90999985    2.71000004
   16.85694504  104.83899689    4.90999985    2.71000004
   16.86000061   96.74970245    4.90999985    2.71000004
   16.86333466   98.23100281    4.90999985    2.71000004
   16.86666679   95.75129700    4.90999985    2.71000004
   16.86972237  100.91699982    4.90999985    2.71000004
   16.87305641   90.41179657    4.90999985    2.71000004
   16.87611198   93.95359802    4.90999985    2.73000002
   16.87888908   97.17569733    4.90999985    2.71000004
   16.87972260   96.73799896    4.90999985    2.71000004
   16.88305473   95.34010315    4.90999985    2.73000002
   16.88916588   95.34010315    4.90999985    2.73000002
   16.89333344   97.15529633    4.90999985    2.71000004
   16.89638901   91.74169922    4.90999985    2.71000004
   16.89972115   93.02950287    4.90999985    2.71000004
   16.90305519  100.29599762    4.90999985    2.71000004
   16.90611076   96.82299805    4.90999985    2.71000004
   16.90944481   95.22200012    4.90999985    2.73000002
   16.91222191  100.83899689    4.90999985    2.71000004
   16.91305542   96.55159760    4.90999985    2.71000004
   16.91638756   97.79019928    4.90999985    2.73000002
   16.91972160   98.38089752    4.90999985    2.71000004
   16.92277718   96.36959839    4.90999985    2.71000004
   16.92611122   99.46820068    4.90999985    2.69000006
   16.93194389   99.46820068    4.90999985    2.69000006
   16.93610954   92.42209625    4.90999985    2.71000004
   16.93944359   92.30899811    4.90999985    2.69000006
   16.94249916   95.99479675    4.90999985    2.69000006
   16.94555473   94.63670349    4.90999985    2.71000004
   16.94610977   96.62560272    4.90999985    2.71000004
   16.94944382   94.89379883    4.90999985    2.71000004
   16.95277786  102.03099823    4.90999985    2.71000004
   16.95583344   98.80789948    4.90999985    2.69000006
   16.95916748   99.42410278    4.90999985    2.69000006
   16.96222305   99.06749725    4.90999985    2.71000004
   16.96555710   97.84750366    4.90999985    2.71000004
   16.96888924   94.14800262    4.90999985    2.71000004
   16.97472191   94.14800262    4.90999985    2.71000004
   16.97888947  102.48799896    4.90999985    2.71000004
   16.98222351  100.12899780    4.90999985    2.71000004
   16.98527718   98.93859863    4.90999985    2.71000004
   16.98861122  100.61599731    4.90999985    2.71000004
   16.99194527  103.24099731    4.90999985    2.71000004
   16.99500084   93.01080322    4.90999985    2.71000004
   16.99833298   97.52610016    4.90999985    2.71000004
   17.00166702  100.01599884    4.90999985    2.71000004
   17.00472260   95.81870270    4.90999985    2.71000004
   17.00805473   95.67800140    4.90999985    2.69000006
   17.01111031   98.34799957    4.90999985    2.71000004
   17.01222229  102.66999817    4.90999985    2.69000006
   17.03277779  102.66999817    4.90999985    2.71000004
   17.03694344   99.06809998    4.90999985    2.71000004
   17.04027748   92.40290070    4.90999985    2.71000004
   17.04333305  101.49900055    4.90999985    2.69000006
   17.04555511   94.14920044    4.90999985    2.69000006
   17.04694366   97.76349640    4.90999985    2.69000006
   17.05027771   93.56330109    4.90999985    2.69000006
   17.05360985   94.51899719    4.90999985    2.71000004
   17.05666542   96.70249939    4.90999985    2.71000004
   17.05999947   99.98819733    4.90999985    2.69000006
   17.06333351   94.87999725    4.90999985    2.67000008
   17.06638718  101.92800140    4.90999985    2.66000009
   17.06972313  101.77500153    4.90999985    2.59999990
   17.07555580  101.77500153    4.90999985    2.40000010
   17.07972336  113.18900299    4.90999985    2.42000008
   17.08305550  109.71800232    4.90999985    2.40000010
   17.08611107  115.71600342    4.90999985    2.34999990
   17.08944511  126.15499878    4.90999985    2.32999992
   17.09277916  128.05299377    4.90999985    2.32999992
   17.09583473  113.09799957    4.90999985    2.39000010
   17.09916687  116.30799866    4.90999985    2.51999998
   17.10222244  118.61599731    4.90999985    2.39000010
   17.10555649  108.27500153    4.90999985    2.36999989
   17.10888863  114.32599640    4.90999985    2.42000008
   17.11194420  111.69100189    4.90999985    2.42000008
   17.11250114  120.22200012    4.90999985    2.42000008
   17.11833382  120.22200012    4.90999985    2.53999996
   17.12249947  108.14600372    4.90999985    2.55999994
   17.12583351  109.89199829    4.90999985    2.50000000
   17.12916756  114.04299927    4.90999985    2.50000000
   17.13222313   99.81510162    4.90999985    2.42000008
   17.13555527  103.16400146    4.90999985    2.51999998
   17.13861084  104.11599731    4.90999985    2.51999998
   17.14194489  105.45099640    4.90999985    2.55999994
   17.14527702  100.61499786    4.90999985    2.57999992
   17.14583397  103.90799713    4.90999985    2.59999990
   17.14888954   99.46309662    4.90999985    2.61999989
   17.15222168   97.36019897    4.90999985    2.66000009
   17.15527725   99.40249634    4.90999985    2.66000009
   17.16138840   99.40249634    4.90999985    2.66000009
   17.16555595  102.97899628    4.90999985    2.67000008
   17.16860962   99.01889801    4.90999985    2.67000008
   17.17194366   99.23010254    4.90999985    2.69000006
   17.17499924   98.37419891    4.90999985    2.67000008
   17.17833328   94.76100159    4.90999985    2.67000008
   17.17916679   96.96119690    4.90999985    2.67000008
   17.18194389   96.76959991    4.90999985    2.67000008
   17.18527603   97.88159943    4.90999985    2.69000006
   17.18833160   96.22599792    4.90999985    2.69000006
   17.19166565   95.20240021    4.90999985    2.69000006
   17.19472122   95.60759735    4.90999985    2.69000006
   17.19805527   97.61260223    4.90999985    2.69000006
   17.20416832   97.61260223    4.90999985    2.69000006
   17.20833397   94.95670319    4.90999985    2.69000006
   17.21138954   93.20570374    4.90999985    2.69000006
   17.21250153   95.70989990    4.90999985    2.69000006
   17.21527863   93.58619690    4.90999985    2.69000006
   17.21861076  100.89099884    4.90999985    2.69000006
   17.22166634   95.95680237    4.90999985    2.71000004
   17.22500038   95.97859955    4.90999985    2.69000006
   17.22805595   93.11660004    4.90999985    2.69000006
   17.23139000   92.72339630    4.90999985    2.69000006
   17.23472214   98.98860168    4.90999985    2.69000006
   17.23777771   97.56140137    4.90999985    2.69000006
   17.24111176   92.03949738    4.90999985    2.69000006
   17.24694443   92.03949738    4.90999985    2.71000004
   17.25111198   94.55889893    4.90999985    2.71000004
   17.25444412   96.90660095    4.90999985    2.71000004
   17.25749969   93.93270111    4.90999985    2.69000006
   17.26083374   94.99590302    4.90999985    2.71000004
   17.26416588  101.15100098    4.90999985    2.69000006
   17.26722145  105.63200378    4.90999985    2.64000010
   17.27055550  107.04199982    4.90999985    2.57999992
   17.27361107   97.64920044    4.90999985    2.55999994
   17.27694511  101.10199738    4.90999985    2.57999992
   17.27916718   91.92659760    4.90999985    2.53999996
   17.28055573  100.14399719    4.90999985    2.55999994
   17.28388786   98.86309814    4.90999985    2.48000002
   17.28972244   98.86309814    4.90999985    2.42000008
   17.29388809  109.92800140    4.90999985    2.44000006
   17.29722214   96.44940186    4.90999985    2.51999998
   17.30055428  102.41400146    4.90999985    2.55999994
   17.30360985   91.27169800    4.90999985    2.57999992
   17.30694389   96.98899841    4.90999985    2.64000010
   17.30999947   94.59719849    4.90999985    2.66000009
   17.31250000   97.39630127    4.90999985    2.59999990
   17.31388855   98.40560150    4.90999985    2.59999990
   17.31722260   95.68720245    4.90999985    2.59999990
   17.32027817  101.62500000    4.90999985    2.53999996
   17.32361221   98.81300354    4.90999985    2.50000000
   17.32694626   97.33640289    4.90999985    2.50000000
   17.33277893   97.33640289    4.90999985    2.48000002
   17.33694458   99.69879913    4.90999985    2.55999994
   17.34000015   99.95899963    4.90999985    2.66000009
   17.34333420   96.73380280    4.90999985    2.64000010
   17.34583473   99.24710083    4.90999985    2.66000009
   17.34694481   94.97499847    4.90999985    2.64000010
   17.35027885   98.53990173    4.90999985    2.64000010
   17.35333443   98.22519684    4.90999985    2.66000009
   17.35666656   98.57289886    4.90999985    2.64000010
   17.35972214   99.83959961    4.90999985    2.64000010
   17.36305618   99.08920288    4.90999985    2.66000009
   17.36638832   99.92960358    4.90999985    2.66000009
   17.36972237   99.01480103    4.90999985    2.64000010
   17.37555504   99.01480103    4.90999985    2.64000010
   17.37972260   97.18260193    4.90999985    2.64000010
   17.38277817   94.75180054    4.90999985    2.64000010
   17.38611031   96.74739838    4.90999985    2.61999989
   17.38944435   98.62129974    4.90999985    2.64000010
   17.39249992  102.51599884    4.90999985    2.61999989
   17.39583397   98.78849792    4.90999985    2.64000010
   17.39888954  100.17600250    4.90999985    2.66000009
   17.40222168  104.30200195    4.90999985    2.61999989
   17.40555573  100.48500061    4.90999985    2.59999990
   17.40861130   98.88809967    4.90999985    2.59999990
   17.41194344   95.12120056    4.90999985    2.53999996
   17.41250038   95.19670105    4.90999985    2.55999994
   17.41833305   95.19670105    4.90999985    2.59999990
   17.42249870   94.20059967    4.90999985    2.55999994
   17.42583275  100.55899811    4.90999985    2.57999992
   17.42888832  105.96099854    4.90999985    2.53999996
   17.43222237   96.35060120    4.90999985    2.57999992
   17.43527603  100.92900085    4.90999985    2.51999998
   17.43861008   98.34449768    4.90999985    2.53999996
   17.44194412  100.52500153    4.90999985    2.57999992
   17.44499969   99.94239807    4.90999985    2.55999994
   17.44583321  104.20600128    4.90999985    2.57999992
   17.44861031   95.61039734    4.90999985    2.53999996
   17.45194435  101.70800018    4.90999985    2.55999994
   17.45499992   93.30339813    4.90999985    2.53999996
   17.46111107   93.30339813    4.90999985    2.61999989
   17.46527863   94.17700195    4.90999985    2.69000006
   17.46861076   91.61319733    4.90999985    2.69000006
   17.47166634   89.32669830    4.90999985    2.71000004
   17.47500038   94.77330017    4.90999985    2.71000004
   17.47833443   92.17710114    4.90999985    2.71000004
   17.47916794   95.02510071    4.90999985    2.71000004
   17.48194504   95.09439850    4.90999985    2.71000004
   17.48527718   86.02709961    4.90999985    2.71000004
   17.48833275   86.48850250    4.90999985    2.71000004
   17.49166679   89.23930359    4.90999985    2.69000006
   17.49500084   93.89779663    4.90999985    2.71000004
   17.49805641   90.46640015    4.90999985    2.71000004
   17.50416756   90.46640015    4.90999985    2.71000004
   17.50805473   89.87049866    4.90999985    2.71000004
   17.51138878   94.25879669    4.90999985    2.71000004
   17.51250076   90.11959839    4.90999985    2.71000004
   17.51499939   93.34339905    4.90999985    2.71000004
   17.51833344   89.16899872    4.90999985    2.71000004
   17.52138901   96.87059784    4.90999985    2.71000004
   17.52472115   89.36569977    4.90999985    2.73000002
   17.52805519   88.54160309    4.90999985    2.69000006
   17.53111076   90.28379822    4.90999985    2.71000004
   17.53444481   94.44460297    4.90999985    2.71000004
   17.53777695   91.27799988    4.90999985    2.71000004
   17.54083252   91.69010162    4.90999985    2.69000006
   17.54694366   91.69010162    4.90999985    2.71000004
   17.55111122  102.51300049    4.90999985    2.71000004
   17.55416679   92.57460022    4.90999985    2.69000006
   17.55749893   97.68930054    4.90999985    2.69000006
   17.56083298   89.02480316    4.90999985    2.64000010
   17.56388855   92.47229767    4.90999985    2.67000008
   17.56722260   90.25650024    4.90999985    2.66000009
   17.57027817   93.37439728    4.90999985    2.66000009
   17.57361221   91.31269836    4.90999985    2.64000010
   17.57694626   86.42150116    4.90999985    2.59999990
   17.57916832   90.97709656    4.90999985    2.64000010
   17.58055687   95.46289825    4.90999985    2.61999989
   17.58388901   84.16400146    4.90999985    2.61999989
   17.58972359   84.16400146    4.90999985    2.57999992
   17.59388924   93.97969818    4.90999985    2.64000010
   17.59722328   89.74510193    4.90999985    2.64000010
   17.60027885   90.45310211    4.90999985    2.61999989
   17.60361099   89.19380188    4.90999985    2.66000009
   17.60666656   87.89340210    4.90999985    2.67000008
   17.61000061   91.95649719    4.90999985    2.69000006
   17.61250114   94.60769653    4.90999985    2.69000006
   17.61361122   91.98560333    4.90999985    2.67000008
   17.61694527   93.30319977    4.90999985    2.69000006
   17.62027740   88.56510162    4.90999985    2.71000004
   17.62333298   96.04550171    4.90999985    2.69000006
   17.62666702   94.12300110    4.90999985    2.71000004
   17.63249969   94.12300110    4.90999985    2.69000006
   17.63666725   91.93319702    4.90999985    2.71000004
   17.63999939   98.62740326    4.90999985    2.71000004
   17.64305496   92.83719635    4.90999985    2.69000006
   17.64583397   97.57420349    4.90999985    2.69000006
   17.64666748   96.18360138    4.90999985    2.69000006
   17.64999962   94.02400208    4.90999985    2.69000006
   17.65305519   88.35489655    4.90999985    2.71000004
   17.65638924   87.24469757    4.90999985    2.69000006
   17.65972137   91.12300110    4.90999985    2.67000008
   17.66277695   89.84220123    4.90999985    2.69000006
   17.66611099   88.96579742    4.90999985    2.69000006
   17.66916656   94.47419739    4.90999985    2.69000006
   17.67555428   94.47419739    4.90999985    2.71000004
   17.67972183   90.31089783    4.90999985    2.71000004
   17.68277740   90.56999969    4.90999985    2.71000004
   17.68610954   92.09750366    4.90999985    2.71000004
   17.68916512   94.11889648    4.90999985    2.69000006
   17.69249916   91.75029755    4.90999985    2.69000006
   17.69583321   94.13339996    4.90999985    2.69000006
   17.69888878   90.03269958    4.90999985    2.69000006
   17.70222282   96.63839722    4.90999985    2.69000006
   17.70555687   96.78730011    4.90999985    2.69000006
   17.70861244   90.52050018    4.90999985    2.69000006
   17.71194458   94.06909943    4.90999985    2.69000006
   17.71277809   95.59750366    4.90999985    2.69000006
   17.71833420   95.59750366    4.90999985    2.69000006
   17.72249985   89.47190094    4.90999985    2.69000006
   17.72555542   96.36340332    4.90999985    2.69000006
   17.72888947   98.13490295    4.90999985    2.69000006
   17.73222351   94.21510315    4.90999985    2.71000004
   17.73527718   88.20490265    4.90999985    2.71000004
   17.73861122   95.19750214    4.90999985    2.69000006
   17.74166679   96.00379944    4.90999985    2.69000006
   17.74500084   94.74690247    4.90999985    2.69000006
   17.74611092   93.29859924    4.90999985    2.69000006
   17.74861145   95.70189667    4.90999985    2.69000006
   17.75194359   97.81790161    4.90999985    2.69000006
   17.75499916   94.63929749    4.90999985    2.69000006
   17.76111031   94.63929749    4.90999985    2.69000006
   17.76527786   90.79900360    4.90999985    2.67000008
   17.76861000   90.97879791    4.90999985    2.66000009
   17.77166557   92.03330231    4.90999985    2.67000008
   17.77499962   96.54129791    4.90999985    2.67000008
   17.77833366   96.10800171    4.90999985    2.67000008
   17.77944374   99.42590332    4.90999985    2.66000009
   17.78166580   93.49250031    4.90999985    2.67000008
   17.78499985  100.73000336    4.90999985    2.66000009
   17.78805542   93.15170288    4.90999985    2.66000009
   17.79138756   94.77570343    4.90999985    2.64000010
   17.79472160   94.65769958    4.90999985    2.64000010
   17.79777718   97.74600220    4.90999985    2.64000010
   17.80388832   97.74600220    4.90999985    2.61999989
   17.80805397   92.45040131    4.90999985    2.64000010
   17.81138802   95.98850250    4.90999985    2.64000010
   17.81277657   94.12590027    4.90999985    2.64000010
   17.81499863   92.59719849    4.90999985    2.64000010
   17.81833458   93.38169861    4.90999985    2.64000010
   17.82139015   91.95490265    4.90999985    2.66000009
   17.82472229   94.79720306    4.90999985    2.66000009
   17.82805634   93.67130280    4.90999985    2.66000009
   17.83111191   96.39219666    4.90999985    2.66000009
   17.83444595   97.87490082    4.90999985    2.67000008
   17.83777809   91.25759888    4.90999985    2.66000009
   17.84083366   92.47260284    4.90999985    2.67000008
   17.84694481   92.47260284    4.90999985    2.66000009
   17.85083389   92.52850342    4.90999985    2.67000008
   17.85416794   92.19309998    4.90999985    2.67000008
   17.85750008   97.66100311    4.90999985    2.67000008
   17.86055565   91.58360291    4.90999985    2.67000008
   17.86388969   94.16269684    4.90999985    2.67000008
   17.86722183   87.64469910    4.90999985    2.69000006
   17.87027740   89.90200043    4.90999985    2.69000006
   17.87361145   85.94850159    4.90999985    2.69000006
   17.87694550   89.85720062    4.90999985    2.69000006
   17.87944412   93.70890045    4.90999985    2.69000006
   17.88027763   87.45909882    4.90999985    2.69000006
   17.88361168   90.56700134    4.90999985    2.69000006
   17.88972282   90.56700134    4.90999985    2.69000006
   17.89388847   91.39009857    4.90999985    2.69000006
   17.89694405   95.09519958    4.90999985    2.69000006
   17.90027809   91.67849731    4.90999985    2.69000006
   17.90361023   94.91899872    4.90999985    2.69000006
   17.90666580   97.36720276    4.90999985    2.69000006
   17.90999985   94.14689636    4.90999985    2.69000006
   17.91277695   91.06420135    4.90999985    2.69000006
   17.91361046   93.29699707    4.90999985    2.69000006
   17.91694450   95.64569855    4.90999985    2.69000006
   17.92027664   92.56829834    4.90999985    2.67000008
   17.92333221   98.34649658    4.90999985    2.66000009
   17.92666626   93.92079926    4.90999985    2.67000008
   17.93249893   93.92079926    4.90999985    2.69000006
   17.93666649   90.67919922    4.90999985    2.66000009
   17.93999863   90.15550232    4.90999985    2.66000009
   17.94305420   92.79319763    4.90999985    2.64000010
   17.94610977   98.77040100    4.90999985    2.61999989
   17.94666672   95.53099823    4.90999985    2.64000010
   17.95000076   92.34960175    4.90999985    2.66000009
   17.95333481   96.92150116    4.90999985    2.64000010
   17.95639038   94.34519958    4.90999985    2.64000010
   17.95972252   96.63020325    4.90999985    2.64000010
   17.96277809  101.62599945    4.90999985    2.66000009
   17.96611214   94.23010254    4.90999985    2.67000008
   17.96944427   87.26789856    4.90999985    2.67000008
   17.97527885   87.26789856    4.90999985    2.71000004
   17.97944450   94.42310333    4.90999985    2.67000008
   17.98277855  101.07700348    4.90999985    2.61999989
   17.98583412  100.32099915    4.90999985    2.59999990
   17.98916626  101.80500031    4.90999985    2.55999994
   17.99250031   92.32830048    4.90999985    2.51999998
   17.99555588  103.98300171    4.90999985    2.57999992
   17.99888992  104.65000153    4.90999985    2.51999998
   18.00222206  114.70899963    4.90999985    2.50000000
   18.00527763   99.77559662    4.90999985    2.46000004
   18.00861168  102.20600128    4.90999985    2.53999996
   18.01166725   90.75720215    4.90999985    2.55999994
   18.01277733   91.68699646    4.90999985    2.48000002
   18.01833344   91.68699646    4.90999985    2.64000010
   18.02222252   94.23850250    4.90999985    2.67000008
   18.02555466   88.02220154    4.90999985    2.69000006
   18.02888870   90.58509827    4.90999985    2.67000008
   18.04638863   92.36669922    4.90999985    2.67000008
   18.04888916   90.29409790    4.90999985    2.69000006
   18.05194283   93.93890381    4.90999985    2.69000006
   18.05527687   94.49150085    4.90999985    2.66000009
   18.06110954   94.49150085    4.90999985    2.67000008
   18.06527710   91.90740204    4.90999985    2.69000006
   18.06861115   86.81999969    4.90999985    2.69000006
   18.07194519   94.78579712    4.90999985    2.69000006
   18.07500076   87.98509979    4.90999985    2.69000006
   18.07833481   90.41750336    4.90999985    2.69000006
   18.07972336   88.89389801    4.90999985    2.67000008
   18.08250046   92.88430023    4.90999985    2.67000008
   18.08555603   97.24169922    4.90999985    2.64000010
   18.08889008   89.86560059    4.90999985    2.64000010
   18.09222221   94.49430084    4.90999985    2.67000008
   18.09527779   96.26599884    4.90999985    2.67000008
   18.09861183   91.32039642    4.90999985    2.67000008
   18.10416794   91.32039642    4.90999985    2.69000006
   18.10833359   95.75270081    4.90999985    2.66000009
   18.11138916   88.93769836    4.90999985    2.67000008
   18.11305618   88.79620361    4.90999985    2.67000008
   18.11499977   89.01529694    4.90999985    2.66000009
   18.11833382   89.58119965    4.90999985    2.66000009
   18.12166595   89.50379944    4.90999985    2.66000009
   18.12472153   90.62490082    4.90999985    2.66000009
   18.12805557   95.69930267    4.90999985    2.67000008
   18.13138962   90.67140198    4.90999985    2.67000008
   18.13444519   93.97689819    4.90999985    2.67000008
   18.13777733   90.31939697    4.90999985    2.67000008
   18.14111137   95.53829956    4.90999985    2.67000008
   18.14694405   95.53829956    4.90999985    2.67000008
   18.15111160   95.36710358    4.90999985    2.67000008
   18.15416718  102.03199768    4.90999985    2.67000008
   18.15749931   93.26959991    4.90999985    2.67000008
   18.16083336   92.16259766    4.90999985    2.67000008
   18.16388893   91.66919708    4.90999985    2.67000008
   18.16722107   87.93569946    4.90999985    2.67000008
   18.17055511   91.27880096    4.90999985    2.67000008
   18.17361069   93.73370361    4.90999985    2.67000008
   18.17694473   85.48259735    4.90999985    2.67000008
   18.17972183   95.13379669    4.90999985    2.69000006
   18.18055534   88.21710205    4.90999985    2.66000009
   18.18361092   95.63880157    4.90999985    2.67000008
   18.18972206   95.63880157    4.90999985    2.67000008
   18.19388771   86.01450348    4.90999985    2.66000009
   18.19722176   90.74459839    4.90999985    2.67000008
   18.20027924   90.78859711    4.90999985    2.66000009
   18.20361137   89.40380096    4.90999985    2.67000008
   18.20694542   94.94159698    4.90999985    2.66000009
   18.21000099   87.02880096    4.90999985    2.66000009
   18.21305656   94.17630005    4.90999985    2.67000008
   18.21389008   91.82510376    4.90999985    2.67000008
   18.21694565   91.65180206    4.90999985    2.66000009
   18.22027779   91.92070007    4.90999985    2.66000009
   18.22361183   99.51629639    4.90999985    2.64000010
   18.22666740   89.26039886    4.90999985    2.66000009
   18.23250008   89.26039886    4.90999985    2.67000008
   18.23666763   91.30599976    4.90999985    2.67000008
   18.23999977   90.11889648    4.90999985    2.67000008
   18.24333382   90.90019989    4.90999985    2.67000008
   18.24638939   95.81510162    4.90999985    2.66000009
   18.24666786   97.83350372    4.90999985    2.66000009
   18.25000000   94.21469879    4.90999985    2.67000008
   18.25333405  101.58899689    4.90999985    2.66000009
   18.25638962   94.33730316    4.90999985    2.67000008
   18.25972176   93.31150055    4.90999985    2.66000009
   18.26305580   91.83679962    4.90999985    2.67000008
   18.26611137   90.80809784    4.90999985    2.67000008
   18.26944351   91.56189728    4.90999985    2.66000009
   18.27555466   91.56189728    4.90999985    2.67000008
   18.27972221   99.59159851    4.90999985    2.66000009
   18.28055573   93.82430267    4.90999985    2.66000009
   18.28361130   90.57839966    4.90999985    2.66000009
   18.28694344   91.31659698    4.90999985    2.66000009
   18.29027748   90.65570068    4.90999985    2.66000009
   18.29333305   88.87680054    4.90999985    2.66000009
   18.29666710   92.85829926    4.90999985    2.66000009
   18.29999924   97.61489868    4.90999985    2.66000009
   18.30305481   91.46340179    4.90999985    2.67000008
   18.30638885   91.86100006    4.90999985    2.67000008
   18.30944443   97.15879822    4.90999985    2.67000008
   18.31277657   86.59870148    4.90999985    2.67000008
   18.31333351   91.52480316    4.90999985    2.67000008
   18.31833458   91.52480316    4.90999985    2.67000008
   18.32250023   92.25509644    4.90999985    2.67000008
   18.32555580   93.23259735    4.90999985    2.66000009
   18.32888985   89.56159973    4.90999985    2.66000009
   18.33222389   90.67410278    4.90999985    2.66000009
   18.33527756   93.17659760    4.90999985    2.66000009
   18.33861160   85.90619659    4.90999985    2.66000009
   18.34194565   91.45449829    4.90999985    2.67000008
   18.34500122   91.63639832    4.90999985    2.67000008
   18.34666824   87.74680328    4.90999985    2.67000008
   18.34889030   91.64569855    4.90999985    2.66000009
   18.35194397   94.74500275    4.90999985    2.66000009
   18.35527802   91.42220306    4.90999985    2.67000008
   18.36111069   91.42220306    4.90999985    2.66000009
   18.36527824   86.60810089    4.90999985    2.66000009
   18.36861038   89.67350006    4.90999985    2.66000009
   18.37166595   86.92330170    4.90999985    2.67000008
   18.37500000   86.41220093    4.90999985    2.66000009
   18.37833405   86.65840149    4.90999985    2.67000008
   18.38000107   92.90460205    4.90999985    2.67000008
   18.38194466   85.42120361    4.90999985    2.66000009
   18.38500023   84.53160095    4.90999985    2.67000008
   18.38833237   91.33319855    4.90999985    2.66000009
   18.39166641   89.79900360    4.90999985    2.66000009
   18.39472198   85.98349762    4.90999985    2.66000009
   18.39805603   93.41529846    4.90999985    2.66000009
   18.40388870   93.41529846    4.90999985    2.66000009
   18.40805435   90.81999969    4.90999985    2.66000009
   18.41138840   88.63330078    4.90999985    2.66000009
   18.41333389   87.63430023    4.90999985    2.66000009
   18.41499901   88.18750000    4.90999985    2.67000008
   18.41805458   86.95259857    4.90999985    2.66000009
   18.42138863   88.30370331    4.90999985    2.67000008
   18.42472076   87.35160065    4.90999985    2.67000008
   18.42777634   86.65679932    4.90999985    2.67000008
   18.43111038   92.06449890    4.90999985    2.67000008
   18.43416595   92.63439941    4.90999985    2.67000008
   18.43750000   89.13870239    4.90999985    2.66000009
   18.44083214   88.65679932    4.90999985    2.66000009
   18.44694328   88.65679932    4.90999985    2.66000009
   18.45111275   92.01940155    4.90999985    2.66000009
   18.45416832   86.49440002    4.90999985    2.66000009
   18.45750046   84.36579895    4.90999985    2.66000009
   18.46055603   84.51850128    4.90999985    2.66000009
   18.46389008   85.59600067    4.90999985    2.67000008
   18.46722221   94.80200195    4.90999985    2.66000009
   18.47027779   86.41809845    4.90999985    2.66000009
   18.47361183   85.29509735    4.90999985    2.66000009
   18.47694588   86.14129639    4.90999985    2.66000009
   18.48000145   89.18710327    4.90999985    2.67000008
   18.48055649   90.08899689    4.90999985    2.66000009
   18.48361206   86.53109741    4.90999985    2.67000008
   18.48972321   86.53109741    4.90999985    2.66000009
   18.49388885   87.23239899    4.90999985    2.66000009
   18.49694443   85.44329834    4.90999985    2.66000009
   18.50027847   86.55960083    4.90999985    2.66000009
   18.50361061   85.27200317    4.90999985    2.67000008
   18.50666618   82.50669861    4.90999985    2.66000009
   18.51000023   88.91590118    4.90999985    2.66000009
   18.51333427   88.63569641    4.90999985    2.66000009
   18.51361084   85.28130341    4.90999985    2.66000009
   18.51694489   89.48999786    4.90999985    2.66000009
   18.52027702   94.39360046    4.90999985    2.66000009
   18.52333260   86.83709717    4.90999985    2.66000009
   18.52666664   84.88849640    4.90999985    2.66000009
   18.53249931   84.88849640    4.90999985    2.66000009
   18.53666687   88.81289673    4.90999985    2.66000009
   18.53999901   90.40059662    4.90999985    2.66000009
   18.54305458   87.15450287    4.90999985    2.66000009
   18.54638863   92.81120300    4.90999985    2.66000009
   18.54694366   92.13110352    4.90999985    2.66000009
   18.54999924   92.35900116    4.90999985    2.66000009
   18.55333328   88.24230194    4.90999985    2.66000009
   18.55638885   85.76360321    4.90999985    2.66000009
   18.55972099   86.68360138    4.90999985    2.66000009
   18.56305504   93.24310303    4.90999985    2.66000009
   18.56611061   88.26820374    4.90999985    2.64000010
   18.56944466   91.77539825    4.90999985    2.66000009
   18.57527924   91.77539825    4.90999985    2.66000009
   18.57944489   83.98889923    4.90999985    2.64000010
   18.58055687   87.47930145    4.90999985    2.66000009
   18.58305550   90.22959900    4.90999985    2.64000010
   18.58638954   86.71070099    4.90999985    2.64000010
   18.58944511   87.92749786    4.90999985    2.64000010
   18.59277916   90.26940155    4.90999985    2.66000009
   18.59611130   90.49590302    4.90999985    2.66000009
   18.59916687   91.59709930    4.90999985    2.64000010
   18.60250092   87.27929688    4.90999985    2.64000010
   18.60583305   88.19490051    4.90999985    2.66000009
   18.60888863   88.73429871    4.90999985    2.64000010
   18.61222267   86.76260376    4.90999985    2.66000009
   18.61388969   90.14019775    4.90999985    2.64000010
   18.61833382   90.14019775    4.90999985    2.64000010
   18.62249947   91.99140167    4.90999985    2.64000010
   18.62555504   87.79789734    4.90999985    2.64000010
   18.62888908   87.71849823    4.90999985    2.64000010
   18.63194466   86.43509674    4.90999985    2.64000010
   18.63527679   85.92800140    4.90999985    2.64000010
   18.63861084   82.93849945    4.90999985    2.64000010
   18.64194489   86.74710083    4.90999985    2.64000010
   18.64500046   87.48110199    4.90999985    2.64000010
   18.64722252   88.42220306    4.90999985    2.64000010
   18.64861107   89.20939636    4.90999985    2.64000010
   18.65194321   91.23799896    4.90999985    2.64000010
   18.65499878   89.13700104    4.90999985    2.64000010
   18.66110992   89.13700104    4.90999985    2.64000010
   18.66527748   87.31289673    4.90999985    2.64000010
   18.66833305   86.79219818    4.90999985    2.64000010
   18.67166519   89.79989624    4.90999985    2.64000010
   18.67499924   88.21540070    4.90999985    2.64000010
   18.67805481   85.03450012    4.90999985    2.64000010
   18.68055534   89.24130249    4.90999985    2.64000010
   18.68166542   88.50270081    4.90999985    2.64000010
   18.68499947   84.40339661    4.90999985    2.64000010
   18.68805504   89.82640076    4.90999985    2.64000010
   18.69138718   87.59390259    4.90999985    2.64000010
   18.69472122   88.96700287    4.90999985    2.64000010
   18.69777679   94.11460114    4.90999985    2.64000010
   18.70388985   94.11460114    4.90999985    2.64000010
   18.70805550   85.77709961    4.90999985    2.61999989
   18.71138954   89.67970276    4.90999985    2.64000010
   18.71389008   84.74780273    4.90999985    2.64000010
   18.71500015   87.67600250    4.90999985    2.64000010
   18.71833420   85.01519775    4.90999985    2.64000010
   18.72138977   89.12359619    4.90999985    2.64000010
   18.72472191   90.77880096    4.90999985    2.64000010
   18.72805595   85.12850189    4.90999985    2.64000010
   18.73111153   86.13369751    4.90999985    2.64000010
   18.73444557   92.09190369    4.90999985    2.64000010
   18.73777771   92.00530243    4.90999985    2.64000010
   18.74083328   88.12680054    4.90999985    2.64000010
   18.74666786   88.12680054    4.90999985    2.64000010
   18.75083351   95.45749664    4.90999985    2.64000010
   18.75416756   88.08370209    4.90999985    2.64000010
   18.75749969   96.47409821    4.90999985    2.61999989
   18.76055527   87.43489838    4.90999985    2.64000010
   18.76388931   88.87359619    4.90999985    2.61999989
   18.76694489   88.40709686    4.90999985    2.64000010
   18.77027702   82.91130066    4.90999985    2.64000010
   18.77361107   93.62999725    4.90999985    2.64000010
   18.77666664   87.68890381    4.90999985    2.64000010
   18.78000069   85.98400116    4.90999985    2.64000010
   18.78194427   86.70649719    4.90999985    2.64000010
   18.78361130   82.95330048    4.90999985    2.64000010
   18.78972244   82.95330048    4.90999985    2.64000010
   18.79388809   84.30460358    4.90999985    2.64000010
   18.79694366   84.38960266    4.90999985    2.61999989
   18.80027771   82.71980286    4.90999985    2.64000010
   18.80333328   87.81009674    4.90999985    2.61999989
   18.80666542   85.93029785    4.90999985    2.61999989
   18.80999947   82.92600250    4.90999985    2.64000010
   18.81305504   92.61640167    4.90999985    2.61999989
   18.81527710   84.42299652    4.90999985    2.64000010
   18.81666756   83.82759857    4.90999985    2.64000010
   18.82000160   84.75070190    4.90999985    2.64000010
   18.82333374   89.49870300    4.90999985    2.64000010
   18.82638931   93.87529755    4.90999985    2.61999989
   18.83250046   93.87529755    4.90999985    2.61999989
   18.83666801   88.11869812    4.90999985    2.61999989
   18.83972359   86.74980164    4.90999985    2.61999989
   18.84305573   85.97699738    4.90999985    2.61999989
   18.84638977   86.04170227    4.90999985    2.61999989
   18.84861183   86.07920074    4.90999985    2.64000010
   18.85000038   89.04589844    4.90999985    2.64000010
   18.85333443   87.71299744    4.90999985    2.64000010
   18.85639000   86.32209778    4.90999985    2.64000010
   18.85972214   88.26969910    4.90999985    2.64000010
   18.86305618   84.46459961    4.90999985    2.61999989
   18.86611176   86.35179901    4.90999985    2.61999989
   18.86944389   88.46060181    4.90999985    2.64000010
   18.87527847   88.46060181    4.90999985    2.61999989
   18.87944412   88.65809631    4.90999985    2.61999989
   18.88194466   81.92489624    4.90999985    2.64000010
   18.88305473   86.72899628    4.90999985    2.61999989
   18.88638878   89.15920258    4.90999985    2.64000010
   18.88944435   81.59739685    4.90999985    2.61999989
   18.89277840   84.16130066    4.90999985    2.64000010
   18.89611053   87.20449829    4.90999985    2.64000010
   18.89916611   89.18840027    4.90999985    2.61999989
   18.90250015   85.52159882    4.90999985    2.61999989
   18.90555573   87.09079742    4.90999985    2.64000010
   18.90888786   87.63339996    4.90999985    2.61999989
   18.91222191   85.76309967    4.90999985    2.64000010
   18.91805458   85.76309967    4.90999985    2.61999989
   18.92222214   84.80419922    4.90999985    2.61999989
   18.92555428   84.99079895    4.90999985    2.64000010
   18.92888832   83.84329987    4.90999985    2.61999989
   18.93194389   84.77909851    4.90999985    2.64000010
   18.93527603   84.54389954    4.90999985    2.64000010
   18.93833160   83.91290283    4.90999985    2.64000010
   18.94166565   84.41490173    4.90999985    2.61999989
   18.94499969   85.86779785    4.90999985    2.61999989
   18.94805527   87.23650360    4.90999985    2.61999989
   18.94916534   82.53510284    4.90999985    2.61999989
   18.95166779   84.59400177    4.90999985    2.61999989
   18.95499992   86.59130096    4.90999985    2.64000010
   18.96111107   86.59130096    4.90999985    2.61999989
   18.96527863   91.50859833    4.90999985    2.61999989
   18.96833420   83.97419739    4.90999985    2.61999989
   18.97166634   82.74140167    4.90999985    2.61999989
   18.97472191   88.12129974    4.90999985    2.61999989
   18.97805595   81.15489960    4.90999985    2.61999989
   18.98139000   85.07550049    4.90999985    2.61999989
   18.98250008   83.26670074    4.90999985    2.61999989
   18.98500061   84.05719757    4.90999985    2.61999989
   18.98833275   86.44020081    4.90999985    2.59999990
   18.99138832   85.41919708    4.90999985    2.57999992
   18.99472237   83.01439667    4.90999985    2.59999990
   18.99805641   88.09079742    4.90999985    2.59999990
   19.00388908   88.09079742    4.90999985    2.57999992
   19.00805473   85.02539825    4.90999985    2.59999990
   19.01111031   85.37490082    4.90999985    2.61999989
   19.01444435   89.62500000    4.90999985    2.61999989
   19.01583290   85.69290161    4.90999985    2.61999989
   19.01805496   87.05239868    4.90999985    2.61999989
   19.02138901   86.48770142    4.90999985    2.59999990
   19.02444458   86.57990265    4.90999985    2.59999990
   19.02777672   85.56639862    4.90999985    2.59999990
   19.03111076   83.77429962    4.90999985    2.61999989
   19.03416634   83.13960266    4.90999985    2.59999990
   19.03750038   84.37169647    4.90999985    2.61999989
   19.04055595   86.66790009    4.90999985    2.59999990
   19.04666710   86.66790009    4.90999985    2.59999990
   19.06499863   80.81189728    4.90999985    2.61999989
   19.06833458   89.13610077    4.90999985    2.61999989
   19.07166672   88.24079895    4.90999985    2.53999996
   19.07472229   86.98079681    4.90999985    2.50000000
   19.07805634   96.93710327    4.90999985    2.42000008
   19.08111191   95.89140320    4.90999985    2.39000010
   19.08444595   86.39119720    4.90999985    2.40000010
   19.08972359   86.39119720    4.90999985    2.46000004
   19.09388924   96.07980347    4.90999985    2.44000006
   19.09722328   99.16400146    4.90999985    2.25000000
   19.09805679   89.31909943    4.90999985    2.26999998
   19.10083389   91.60500336    4.90999985    2.36999989
   19.10416794   89.90059662    4.90999985    2.46000004
   19.10722351   91.05560303    4.90999985    2.39000010
   19.11055565  103.38300323    4.90999985    2.30999994
   19.11361122   95.49680328    4.90999985    2.34999990
   19.11694527   86.37059784    4.90999985    2.40000010
   19.12027740   99.89109802    4.90999985    2.25000000
   19.12333298   92.33799744    4.90999985    2.28999996
   19.12666702   94.70469666    4.90999985    2.30999994
   19.13277817   94.70469666    4.90999985    2.30999994
   19.13666725   96.46009827    4.90999985    2.28999996
   19.13999939   94.93190002    4.90999985    2.28999996
   19.14333344   93.96469879    4.90999985    2.25000000
   19.14638901  112.78399658    4.90999985    2.23000002
   19.14972115  109.26999664    4.90999985    2.21000004
   19.15305519  113.08300018    4.90999985    2.21000004
   19.15611076  165.12399292    4.90999985    2.13000011
   19.15944481  175.27000427    4.90999985    1.96000004
   19.16277695  228.93099976    4.90999985    1.85000002
   19.16472244  226.49699402    4.90999985    1.83000004
   19.16638756  257.53900146    4.90999985    1.78999996
   19.16972160   -1.00000000    4.90999985    1.69000006
   19.17555428   -1.00000000    4.90999985    1.76999998
   19.17972183   -1.00000000    4.90999985    1.48000002
   19.18277740  225.16700745    4.90999985    1.41999996
   19.18610954  142.77900696    4.90999985    1.86000001
   19.18944359   94.35530090    4.90999985    2.00000000
   19.19249916   92.50270081    4.90999985    2.17000008
   19.19583321   96.34100342    4.90999985    2.36999989
   19.19805527   92.34020233    4.90999985    2.30999994
   19.19944382   92.00039673    4.90999985    2.26999998
   19.20277786   93.10340118    4.90999985    2.25000000
   19.20583344  110.79699707    4.90999985    2.15000010
   19.20916748   91.36830139    4.90999985    2.17000008
   19.21250153   87.16590118    4.90999985    2.23000002
   19.21833420   87.16590118    4.90999985    2.40000010
   19.22249985  112.99700165    4.90999985    2.46000004
   19.22583389  103.55899811    4.90999985    2.34999990
   19.22888947   96.10060120    4.90999985    2.32999992
   19.23139000   90.73940277    4.90999985    2.46000004
   19.23250008   87.96389771    4.90999985    2.46000004
   19.23583412   94.06390381    4.90999985    2.51999998
   19.23888969   96.96199799    4.90999985    2.50000000
   19.24222183   91.53489685    4.90999985    2.44000006
   19.24555588   89.20850372    4.90999985    2.51999998
   19.24861145   93.73919678    4.90999985    2.48000002
   19.25194359   88.75039673    4.90999985    2.48000002
   19.25527763   93.90249634    4.90999985    2.48000002
   19.26111031   93.90249634    4.90999985    2.44000006
   19.26527786   89.49520111    4.90999985    2.30999994
   19.26861000   91.57710266    4.90999985    2.39000010
   19.27166557   90.12300110    4.90999985    2.44000006
   19.27499962   93.72440338    4.90999985    2.44000006
   19.27833366   91.30919647    4.90999985    2.36999989
   19.28138924   89.08799744    4.90999985    2.36999989
   19.28472137   86.73410034    4.90999985    2.42000008
   19.28805542   85.70410156    4.90999985    2.48000002
   19.29111099   79.07740021    4.90999985    2.51999998
   19.29444313   81.01419830    4.90999985    2.51999998
   19.29749870   82.35459900    4.90999985    2.53999996
   19.29805565   81.05410004    4.90999985    2.53999996
   19.30416679   81.05410004    4.90999985    2.55999994
   19.30805397   89.83119965    4.90999985    2.53999996
   19.31138802   90.41079712    4.90999985    2.53999996
   19.31472206   84.20310211    4.90999985    2.55999994
   19.31777954   84.32369995    4.90999985    2.55999994
   19.32111168   86.84200287    4.90999985    2.55999994
   19.32444572   87.59960175    4.90999985    2.57999992
   19.32750130   77.75730133    4.90999985    2.57999992
   19.33083344   85.76709747    4.90999985    2.55999994
   19.33139038   87.22799683    4.90999985    2.55999994
   19.33444595   87.90149689    4.90999985    2.57999992
   19.33777809   84.80860138    4.90999985    2.55999994
   19.34083366   82.59629822    4.90999985    2.55999994
   19.34694481   82.59629822    4.90999985    2.57999992
   19.35111237  122.52200317    4.90999985    2.28999996
   19.35416794  108.56600189    4.90999985    2.13000011
   19.35750008   92.40850067    4.90999985    2.26999998
   19.36083412  104.16500092    4.90999985    2.50000000
   19.36388969   81.79560089    4.90999985    2.50000000
   19.36472321   78.97619629    4.90999985    2.53999996
   19.36750031   79.09570313    4.90999985    2.55999994
   19.37083435   81.13569641    4.90999985    2.55999994
   19.37388992   81.14779663    4.90999985    2.55999994
   19.37722206   85.93260193    4.90999985    2.55999994
   19.38055611   85.21510315    4.90999985    2.55999994
   19.38361168   89.03910065    4.90999985    2.55999994
   19.38972282   89.03910065    4.90999985    2.55999994
   19.39388847   88.49420166    4.90999985    2.53999996
   19.39694405   85.96240234    4.90999985    2.55999994
   19.39805603   81.58830261    4.90999985    2.55999994
   19.40083313   84.28980255    4.90999985    2.55999994
   19.40416718   83.82250214    4.90999985    2.55999994
   19.40722275   86.09030151    4.90999985    2.55999994
   19.41055489   84.91750336    4.90999985    2.55999994
   19.41388893   83.27639771    4.90999985    2.55999994
   19.41694450   81.43019867    4.90999985    2.55999994
   19.42027664   84.84190369    4.90999985    2.55999994
   19.42333221   82.27239990    4.90999985    2.55999994
   19.42666626   86.77709961    4.90999985    2.55999994
   19.43249893   86.77709961    4.90999985    2.53999996
   19.43666649   81.03610229    4.90999985    2.55999994
   19.43999863   86.39179993    4.90999985    2.53999996
   19.44305420   86.64849854    4.90999985    2.53999996
   19.44638824   82.25370026    4.90999985    2.55999994
   19.44972038   80.92459869    4.90999985    2.53999996
   19.45277786   83.95230103    4.90999985    2.51999998
   19.45611191   80.36830139    4.90999985    2.53999996
   19.45944595   84.26750183    4.90999985    2.55999994
   19.46250153   83.45970154    4.90999985    2.53999996
   19.46472359   81.47339630    4.90999985    2.53999996
   19.46611214   82.70760345    4.90999985    2.53999996
   19.46944427   80.74359894    4.90999985    2.53999996
   19.47527885   80.74359894    4.90999985    2.51999998
   19.47944450   89.53029633    4.90999985    2.51999998
   19.48277855   98.89890289    4.90999985    2.50000000
   19.48611069   89.09680176    4.90999985    2.42000008
   19.48916626   94.43849945    4.90999985    2.39000010
   19.49250031   84.04409790    4.90999985    2.40000010
   19.49555588   80.72689819    4.90999985    2.42000008
   19.49833298   88.03269958    4.90999985    2.42000008
   19.49916649   81.62809753    4.90999985    2.44000006
   19.50250053   79.29689789    4.90999985    2.48000002
   19.50555611   90.97170258    4.90999985    2.51999998
   19.50888824   84.01850128    4.90999985    2.53999996
   19.51222229   82.03900146    4.90999985    2.55999994
   19.51833344   82.03900146    4.90999985    2.51999998
   19.52249908   83.10130310    4.90999985    2.50000000
   19.52555466   82.50009918    4.90999985    2.48000002
   19.52888870   87.13899994    4.90999985    2.50000000
   19.53166580   80.07740021    4.90999985    2.50000000
   19.53249931   86.02300262    4.90999985    2.50000000
   19.53583336   82.13200378    4.90999985    2.50000000
   19.53888893   92.30310059    4.90999985    2.50000000
   19.54222107   87.81710052    4.90999985    2.50000000
   19.54555511   80.39820099    4.90999985    2.51999998
   19.54861069   81.65139771    4.90999985    2.51999998
   19.55194283   87.46530151    4.90999985    2.51999998
   19.55527687   88.11969757    4.90999985    2.51999998
   19.56110954   88.11969757    4.90999985    2.50000000
   19.56527710   89.54750061    4.90999985    2.50000000
   19.56861115   86.20839691    4.90999985    2.50000000
   19.57166672   89.75990295    4.90999985    2.51999998
   19.57500076   82.04280090    4.90999985    2.51999998
   19.57833481   84.41850281    4.90999985    2.53999996
   19.58139038   83.09609985    4.90999985    2.53999996
   19.58472252   83.54820251    4.90999985    2.53999996
   19.58777809   84.13899994    4.90999985    2.53999996
   19.59111214   94.56469727    4.90999985    2.53999996
   19.59444427   88.10289764    4.90999985    2.51999998
   19.59749985   83.69229889    4.90999985    2.53999996
   19.59833336   87.97180176    4.90999985    2.53999996
   19.60388947   87.97180176    4.90999985    2.51999998
   19.60805511   85.46170044    4.90999985    2.51999998
   19.61138916   87.49179840    4.90999985    2.51999998
   19.61444473   88.05609894    4.90999985    2.51999998
   19.61777878   81.61119843    4.90999985    2.50000000
   19.62083435   83.03639984    4.90999985    2.51999998
   19.62416649   85.78739929    4.90999985    2.50000000
   19.62750053   83.29959869    4.90999985    2.51999998
   19.63055611   84.90699768    4.90999985    2.51999998
   19.63166618   83.38659668    4.90999985    2.51999998
   19.63416672   89.58260345    4.90999985    2.50000000
   19.63750076   98.94029999    4.90999985    2.46000004
   19.64055634   95.08630371    4.90999985    2.42000008
   19.64666748   95.08630371    4.90999985    2.36999989
   19.65083313   87.57879639    4.90999985    2.42000008
   19.65416718   86.73429871    4.90999985    2.39000010
   19.65749931   92.23169708    4.90999985    2.23000002
   19.66055489  115.11900330    4.90999985    2.11999989
   19.66388893  147.55999756    4.90999985    2.07999992
   19.66499901  146.50100708    4.90999985    2.07999992
   19.66749954  175.86099243    4.90999985    2.11999989
   19.67083359  163.23699951    4.90999985    2.21000004
   19.67388916  169.79600525    4.90999985    2.26999998
   19.67722130  177.87600708    4.90999985    2.32999992
   19.68055534  190.39799500    4.90999985    2.36999989
   19.68361092   -1.00000000    4.90999985    2.03999996
   19.68972206   -1.00000000    4.90999985    2.15000010
   19.69388771   -1.00000000    4.90999985    2.26999998
   19.69694328   -1.00000000    4.90999985    2.34999990
   19.70055580   -1.00000000    4.90999985    2.17000008
   19.70361137   -1.00000000    4.90999985    2.17000008
   19.70694542   -1.00000000    4.90999985    2.13000011
   19.71027946   -1.00000000    4.90999985    2.21000004
   19.71333504   -1.00000000    4.90999985    2.25000000
   19.71666718   -1.00000000    4.90999985    2.32999992
   19.72000122   -1.00000000    4.90999985    2.34999990
   19.72305679   -1.00000000    4.90999985    2.40000010
   19.72638893   -1.00000000    4.90999985    2.46000004
   19.73638916   -1.00000000    4.90999985    2.44000006
   19.73972321   -1.00000000    4.90999985    2.46000004
   19.74305534   -1.00000000    4.90999985    2.42000008
   19.74611092   -1.00000000    4.90999985    2.42000008
   19.74944496   -1.00000000    4.90999985    2.44000006
   19.75277710   -1.00000000    4.90999985    2.40000010
   19.75583267   -1.00000000    4.90999985    2.42000008
   19.75916672   -1.00000000    4.90999985    2.39000010
   19.76222229   -1.00000000    4.90999985    2.39000010
   19.76583290   -1.00000000    4.90999985    2.28999996
   19.76888847   -1.00000000    4.90999985    2.26999998
   19.77944374   -1.00000000    4.90999985    2.28999996
   19.78249931   -1.00000000    4.90999985    2.36999989
   19.78583336   -1.00000000    4.90999985    2.42000008
   19.78916550   -1.00000000    4.90999985    2.42000008
   19.79222107   -1.00000000    4.90999985    2.44000006
   19.79555511   -1.00000000    4.90999985    2.44000006
   19.79916573   -1.00000000    4.90999985    2.46000004
   19.80222130   -1.00000000    4.90999985    2.46000004
   19.80555534   -1.00000000    4.90999985    2.48000002
   19.80888748   -1.00000000    4.90999985    2.46000004
   19.81194305   -1.00000000    4.90999985    2.48000002
   19.82222366   -1.00000000    4.90999985    2.48000002
   19.82555580   -1.00000000    4.90999985    2.48000002
   19.82861137   -1.00000000    4.90999985    2.46000004
   19.83222389   -1.00000000    4.90999985    2.48000002
   19.83527756   -1.00000000    4.90999985    2.46000004
   19.83861160   -1.00000000    4.90999985    2.46000004
   19.84194565   -1.00000000    4.90999985    2.46000004
   19.84500122   -1.00000000    4.90999985    2.46000004
   19.84833336   -1.00000000    4.90999985    2.46000004
   19.85166740   -1.00000000    4.90999985    2.46000004
   19.85472298   -1.00000000    4.90999985    2.46000004
   19.86499977   -1.00000000    4.90999985    2.46000004
   19.86833382   -1.00000000    4.90999985    2.46000004
   19.87138939   -1.00000000    4.90999985    2.46000004
   19.87472153   -1.00000000    4.90999985    2.46000004
   19.87805557   -1.00000000    4.90999985    2.46000004
   19.88111115   -1.00000000    4.90999985    2.46000004
   19.88444519   -1.00000000    4.90999985    2.46000004
   19.88750076   -1.00000000    4.90999985    2.46000004
   19.89083290   -1.00000000    4.90999985    2.46000004
   19.89416695   -1.00000000    4.90999985    2.44000006
   19.89722252   -1.00000000    4.90999985    2.46000004
   19.90777779   -1.00000000    4.90999985    2.44000006
   19.91110992   -1.00000000    4.90999985    2.46000004
   19.91444397   -1.00000000    4.90999985    2.44000006
   19.91749954   -1.00000000    4.90999985    2.44000006
   19.92083359   -1.00000000    4.90999985    2.44000006
   19.92416573   -1.00000000    4.90999985    2.44000006
   19.92722130   -1.00000000    4.90999985    2.44000006
   19.93055534   -1.00000000    4.90999985    2.42000008
   19.93416595   -1.00000000    4.90999985    2.40000010
   19.93750000   -1.00000000    4.90999985    2.39000010
   19.94055557   -1.00000000    4.90999985    2.39000010
   19.95083427   -1.00000000    4.90999985    2.32999992
   19.95388985   -1.00000000    4.90999985    2.26999998
   19.95722389   -1.00000000    4.90999985    2.11999989
   19.96027946   -1.00000000    4.90999985    2.05999994
   19.96361160   -1.00000000    4.90999985    2.00000000
   19.96722221   -1.00000000    4.90999985    1.91999996
   19.97055626   -1.00000000    4.90999985    1.94000006
   19.97361183   -1.00000000    4.90999985    1.89999998
   19.97694588   -1.00000000    4.90999985    1.88000000
   19.98000145   -1.00000000    4.90999985    1.89999998
   19.98333359   -1.00000000    4.90999985    1.86000001
   19.99361229   -1.00000000    4.90999985    1.53999996
   19.99666786   -1.00000000    4.90999985    1.48000002
   20.00027847   -1.00000000    4.90999985    1.63000000
   20.00361061   -1.00000000    4.90999985    1.51999998
   20.00666618   -1.00000000    4.90999985    1.55999994
   20.01000023   -1.00000000    4.90999985    1.46000004
   20.01305580   -1.00000000    4.90999985    1.48000002
   20.01638794   -1.00000000    4.90999985    1.50000000
   20.01972198   -1.00000000    4.90999985    1.53999996
   20.02277756   -1.00000000    4.90999985    1.66999996
   20.02611160   -1.00000000    4.90999985    1.78999996
   20.03638840   -1.00000000    4.90999985    2.03999996
   20.03972244   -1.00000000    4.90999985    2.21000004
   20.04277802   -1.00000000    4.90999985    2.28999996
   20.04611015   -1.00000000    4.90999985    2.32999992
   20.04944420   -1.00000000    4.90999985    2.30999994
   20.05249977   -1.00000000    4.90999985    2.26999998
   20.05583191   -1.00000000    4.90999985    2.23000002
   20.05888748   -1.00000000    4.90999985    2.23000002
   20.06222153   -1.00000000    4.90999985    2.25000000
   20.08944511   -1.00000000    4.90999985    2.30999994
   20.09277916   -1.00000000    4.90999985    2.40000010
   20.09611130   -1.00000000    4.90999985    2.39000010
   20.09944534   -1.00000000    4.90999985    2.17000008
   20.10277748   -1.00000000    4.90999985    1.89999998
   20.10583305   -1.00000000    4.90999985    1.86000001
   20.10916710   -1.00000000    4.90999985    1.64999998
   20.11222267   -1.00000000    4.90999985    1.75000000
   20.11555672   -1.00000000    4.90999985    1.80999994
   20.11888885   -1.00000000    4.90999985    1.91999996
   20.12194443   -1.00000000    4.90999985    2.11999989
   20.13222313   -1.00000000    4.90999985    2.25000000
   20.13555527   -1.00000000    4.90999985    2.25000000
   20.13888931   -1.00000000    4.90999985    2.21000004
   20.14194489   -1.00000000    4.90999985    2.19000006
   20.14527702   -1.00000000    4.90999985    1.98000002
   20.14833260   -1.00000000    4.90999985    2.19000006
   20.15166664   -1.00000000    4.90999985    2.25000000
   20.15499878   -1.00000000    4.90999985    2.11999989
   20.15805435   -1.00000000    4.90999985    2.09999990
   20.16138840   -1.00000000    4.90999985    2.23000002
   20.16472244   -1.00000000    4.90999985    2.13000011
   20.17527771   -1.00000000    4.90999985    2.05999994
   20.17833328   -1.00000000    4.90999985    2.00000000
   20.18166542   -1.00000000    4.90999985    2.09999990
   20.18472099   -1.00000000    4.90999985    2.13000011
   20.18805504   -1.00000000    4.90999985    2.05999994
   20.19138718   -1.00000000    4.90999985    2.13000011
   20.19444275   -1.00000000    4.90999985    2.23000002
   20.19777679   -1.00000000    4.90999985    2.30999994
   20.20138931   -1.00000000    4.90999985    2.15000010
   20.20444489   -1.00000000    4.90999985    2.19000006
   20.20777893   -1.00000000    4.90999985    2.13000011
   20.21805573   -1.00000000    4.90999985    1.91999996
   20.22111130   -1.00000000    4.90999985    2.13000011
   20.22444534   -1.00000000    4.90999985    2.19000006
   20.22777748   -1.00000000    4.90999985    2.34999990
   20.23083305   -1.00000000    4.90999985    2.46000004
   20.23444557   -1.00000000    4.90999985    2.32999992
   20.23750114   -1.00000000    4.90999985    2.07999992
   20.24083328   -1.00000000    4.90999985    1.80999994
   20.24416733   -1.00000000    4.90999985    1.58000004
   20.24722290   -1.00000000    4.90999985    1.63000000
   20.25055504   -1.00000000    4.90999985    1.86000001
   20.26083374   -1.00000000    4.90999985    2.39000010
   20.26416588   -1.00000000    4.90999985    2.39000010
   20.26777840   -1.00000000    4.90999985    2.36999989
   20.27083397   -1.00000000    4.90999985    2.28999996
   20.27416611   -1.00000000    4.90999985    2.01999998
   20.27750015   -1.00000000    4.90999985    2.17000008
   20.28055573   -1.00000000    4.90999985    2.23000002
   20.28388786   -1.00000000    4.90999985    2.32999992
   20.28722191   -1.00000000    4.90999985    2.36999989
   20.29027748   -1.00000000    4.90999985    2.36999989
   20.29361153   -1.00000000    4.90999985    2.39000010
   20.30360985   -1.00000000    4.90999985    2.39000010
   20.30694389   -1.00000000    4.90999985    2.34999990
   20.31027794   -1.00000000    4.90999985    2.34999990
   20.31333351   -1.00000000    4.90999985    2.28999996
   20.31666756   -1.00000000    4.90999985    2.23000002
   20.31972313   -1.00000000    4.90999985    2.19000006
   20.32305717   -1.00000000    4.90999985    2.11999989
   20.32638931   -1.00000000    4.90999985    2.09999990
   20.32944489   -1.00000000    4.90999985    2.09999990
