    HOUR (UT)   FLARE FACTOR    SKY TESTER    SUN TESTER
   11.90999985   -1.00000000   -1.00000000   -1.00000000
   11.97805500  166.69900513    1.34000003    2.15000010
   11.98111057  155.10800171    1.36000001    2.15000010
   11.98444462  146.93600464    1.36000001    2.15000010
   11.98777771  158.41200256    1.38000000    2.15000010
   11.99083328  159.78599548    1.36000001    2.15000010
   11.99416733  153.38800049    1.36000001    2.17000008
   11.99833393  153.38800049    1.36000001    2.15000010
   12.00249958  155.52999878    1.36000001    2.17000008
   12.00555515  148.25100708    1.36000001    2.17000008
   12.00888920  152.77000427    1.36000001    2.17000008
   12.01138878  153.90199280    1.36000001    2.17000008
   12.01222229  150.09599304    1.36000001    2.17000008
   12.01555538  154.14500427    1.36000001    2.17000008
   12.01861095  158.64199829    1.36000001    2.17000008
   12.02194405  148.67999268    1.36000001    2.17000008
   12.02527714  154.23199463    1.36000001    2.17000008
   12.02833271  162.60000610    1.36000001    2.17000008
   12.03166676  156.80000305    1.36000001    2.17000008
   12.03500080  150.71200562    1.34000003    2.17000008
   12.04111195  150.71200562    1.34000003    2.19000006
   12.04527855  157.41600037    1.34000003    2.19000006
   12.04833412  142.81399536    1.34000003    2.19000006
   12.05166721  155.63600159    1.34000003    2.21000004
   12.05500031  159.84399414    1.34000003    2.19000006
   12.05805588  152.47500610    1.34000003    2.19000006
   12.06138897  146.77299500    1.34000003    2.19000006
   12.06472206  148.23500061    1.34000003    2.21000004
   12.06777763  142.11500549    1.34000003    2.21000004
   12.07111073  141.64100647    1.34000003    2.21000004
   12.07416630  147.27900696    1.34000003    2.21000004
   12.07750034  149.79400635    1.33000004    2.21000004
   12.07805538  154.13999939    1.33000004    2.21000004
   12.08388901  154.13999939    1.33000004    2.21000004
   12.08805561  155.79699707    1.33000004    2.21000004
   12.09138870  153.00700378    1.30999994    2.23000002
   12.09444427  149.85400391    1.33000004    2.23000002
   12.09777737  146.94099426    1.30999994    2.21000004
   12.10111141  145.96099854    1.28999996    2.23000002
   12.10416698  155.44000244    1.28999996    2.23000002
   12.10750008  149.52799988    1.28999996    2.23000002
   12.11055565  149.58700562    1.30999994    2.23000002
   12.11138916  149.07699585    1.30999994    2.23000002
   12.11416721  159.35099792    1.30999994    2.23000002
   12.11750031  156.71899414    1.28999996    2.23000002
   12.12083340  159.31199646    1.28999996    2.25000000
   12.12666702  159.31199646    1.28999996    2.23000002
   12.13083363  150.42700195    1.28999996    2.23000002
   12.13416672  153.97700500    1.26999998    2.23000002
   12.13749981  169.39300537    1.26999998    2.23000002
   12.14055538  150.96800232    1.26999998    2.23000002
   12.14388847  146.76100159    1.26999998    2.25000000
   12.14472198  151.26499939    1.26999998    2.25000000
   12.14722252  159.85000610    1.26999998    2.25000000
   12.15055561  158.94299316    1.26999998    2.25000000
   12.15388870  155.44799805    1.26999998    2.25000000
   12.15694427  166.80900574    1.26999998    2.25000000
   12.16027737  159.60899353    1.26999998    2.25000000
   12.16361046  155.15100098    1.26999998    2.25000000
   12.16972256  155.15100098    1.26999998    2.25000000
   12.17388916  151.37699890    1.25000000    2.25000000
   12.17694473  163.65299988    1.26999998    2.25000000
   12.17805576  159.48399353    1.25000000    2.25000000
   12.18055630  157.43299866    1.25000000    2.25000000
   12.18388939  149.47999573    1.25000000    2.25000000
   12.18722248  158.74899292    1.25000000    2.26999998
   12.19027805  150.54299927    1.25000000    2.26999998
   12.19361115  159.45399475    1.25000000    2.26999998
   12.19694424  154.73599243    1.25000000    2.26999998
   12.19999981  146.54200745    1.25000000    2.26999998
   12.20333290  156.31599426    1.23000002    2.26999998
   12.20638847  152.15899658    1.25000000    2.26999998
   12.21249962  152.15899658    1.25000000    2.26999998
   12.21666622  148.46499634    1.23000002    2.28999996
   12.21972179  155.17300415    1.21000004    2.28999996
   12.22305489  160.27600098    1.21000004    2.28999996
   12.22638798  152.06799316    1.21000004    2.26999998
   12.22944355  162.38299561    1.21000004    2.26999998
   12.23277760  148.52499390    1.21000004    2.26999998
   12.23583317  160.82499695    1.21000004    2.28999996
   12.23916721  159.96499634    1.21000004    2.28999996
   12.24250031  158.83000183    1.21000004    2.28999996
   12.24472237  166.05700684    1.21000004    2.28999996
   12.24611092  151.85600281    1.19000006    2.28999996
   12.24916649  159.75700378    1.19000006    2.28999996
   12.25527763  159.75700378    1.19000006    2.28999996
   12.25944424  179.87399292    1.19000006    2.30999994
   12.26277733  166.16499329    1.16999996    2.28999996
   12.26583290  169.97300720    1.16999996    2.28999996
   12.26916599  162.44299316    1.16999996    2.28999996
   12.27250004  166.78900146    1.16999996    2.30999994
   12.27555561  173.18400574    1.16999996    2.30999994
   12.27805519  161.19799805    1.16999996    2.30999994
   12.27944374  161.27299500    1.16999996    2.30999994
   12.28249931  158.69900513    1.14999998    2.30999994
   12.28583336  165.14300537    1.14999998    2.30999994
   12.28888893  174.08799744    1.14999998    2.30999994
   12.29222298  163.23599243    1.13000000    2.30999994
   12.29805565  163.23599243    1.13000000    2.30999994
   12.30222225  167.41999817    1.14999998    2.30999994
   12.30555534  164.12899780    1.13000000    2.30999994
   12.30888939  146.92799377    1.11000001    2.32999992
   12.31138897  152.70700073    1.11000001    2.32999992
   12.31250000  162.30099487    1.11000001    2.32999992
   12.31555557  163.71299744    1.11000001    2.32999992
   12.31888866  153.87500000    1.11000001    2.32999992
   12.32222176  158.80499268    1.09000003    2.32999992
   12.32527733  159.49099731    1.11000001    2.32999992
   12.32861137  164.49499512    1.09000003    2.32999992
   12.33194447  165.93899536    1.09000003    2.32999992
   12.33527756  165.33900452    1.09000003    2.32999992
   12.34111118  165.33900452    1.09000003    2.32999992
   12.34527779  155.90800476    1.09000003    2.32999992
   12.34833336  151.30000305    1.09000003    2.32999992
   12.35166740  154.61000061    1.07000005    2.32999992
   12.35500050  155.40400696    1.07000005    2.32999992
   12.35805607  157.82200623    1.07000005    2.32999992
   12.36138916  158.13900757    1.07000005    2.32999992
   12.36444473  151.60200500    1.07000005    2.32999992
   12.36777782  152.76800537    1.07000005    2.32999992
   12.37111092  158.44799805    1.07000005    2.34999990
   12.37416649  149.13900757    1.05999994    2.34999990
   12.37777805  157.60499573    1.07000005    2.34999990
   12.37833309  164.01400757    1.07000005    2.34999990
   12.38388920  164.01400757    1.05999994    2.34999990
   12.38805580  164.63099670    1.05999994    2.34999990
   12.39111137  162.71099854    1.05999994    2.34999990
   12.39444447  156.88800049    1.05999994    2.34999990
   12.39777756  156.75199890    1.05999994    2.34999990
   12.40111065  165.09599304    1.05999994    2.34999990
   12.40444374  163.35600281    1.05999994    2.34999990
   12.40749931  156.06900024    1.05999994    2.34999990
   12.41083336  160.98500061    1.05999994    2.34999990
   12.41138840  157.12199402    1.05999994    2.34999990
   12.41444397  163.23899841    1.05999994    2.34999990
   12.41777802  164.61500549    1.05999994    2.34999990
   12.42083359  167.84899902    1.05999994    2.36999989
   12.42666721  167.84899902    1.05999994    2.36999989
   12.43083382  160.94799805    1.05999994    2.36999989
   12.43416691  156.77400208    1.05999994    2.36999989
   12.43722248  160.77799988    1.03999996    2.36999989
   12.44055557  159.23800659    1.05999994    2.36999989
   12.44388866  160.04899597    1.05999994    2.36999989
   12.44472218  171.12699890    1.03999996    2.36999989
   12.44750023  161.16200256    1.03999996    2.36999989
   12.45083332  160.93499756    1.05999994    2.36999989
   12.45388889  165.03399658    1.03999996    2.36999989
   12.45722198  170.60800171    1.03999996    2.36999989
   12.46027756  162.09399414    1.03999996    2.36999989
   12.46361065  160.14799500    1.03999996    2.36999989
   12.46944427  160.14799500    1.03999996    2.36999989
   12.47361088  162.42599487    1.03999996    2.36999989
   12.47694397  161.18400574    1.03999996    2.36999989
   12.47805500  160.09800720    1.03999996    2.36999989
   12.48055553  160.53900146    1.03999996    2.36999989
   12.48388958  153.90199280    1.03999996    2.39000010
   12.48694515  158.06300354    1.03999996    2.39000010
   12.49027824  157.34899902    1.03999996    2.39000010
   12.49333382  158.85699463    1.03999996    2.39000010
   12.49666691  159.89599609    1.03999996    2.39000010
   12.50000000  155.12899780    1.03999996    2.39000010
   12.50305557  163.56500244    1.01999998    2.39000010
   12.50638866  162.85099792    1.01999998    2.39000010
   12.51249981  162.85099792    1.01999998    2.39000010
   12.51638889  167.21400452    1.01999998    2.39000010
   12.51972198  164.42999268    1.00000000    2.40000010
   12.52305508  163.76400757    0.98000002    2.40000010
   12.52611065  165.09300232    1.00000000    2.40000010
   12.52944374  174.95899963    0.98000002    2.40000010
   12.53277779  160.52000427    1.00000000    2.40000010
   12.53583336  155.02299500    0.98000002    2.39000010
   12.53916740  157.37199402    0.98000002    2.39000010
   12.54222298  160.27900696    0.98000002    2.40000010
   12.54472256  154.05400085    0.95999998    2.40000010
   12.54583359  151.41799927    0.95999998    2.40000010
   12.54916668  165.01800537    0.95999998    2.40000010
   12.55555534  165.01800537    0.94000000    2.40000010
   12.55972195  161.82699585    0.94000000    2.40000010
   12.56305599  159.53700256    0.94000000    2.40000010
   12.56611156  155.17399597    0.94000000    2.40000010
   12.56944466  168.93899536    0.92000002    2.40000010
   12.57250023  157.97099304    0.92000002    2.40000010
   12.57583332  162.00700378    0.89999998    2.40000010
   12.57805538  164.48300171    0.89999998    2.40000010
   12.57944393  158.44900513    0.89999998    2.40000010
   12.58277798  162.08700562    0.89999998    2.40000010
   12.58583260  174.91400146    0.89999998    2.40000010
   12.58916664  160.31199646    0.89999998    2.42000008
   12.59249973  160.03100586    0.89999998    2.40000010
   12.59805489  160.03100586    0.89999998    2.40000010
   12.60222244  162.66200256    0.88000000    2.42000008
   12.60555553  164.38400269    0.88000000    2.42000008
   12.60861111  154.93600464    0.88000000    2.42000008
   12.61166668  163.53100586    0.88000000    2.42000008
   12.61250019  159.02200317    0.88000000    2.42000008
   12.61555576  156.58999634    0.88000000    2.42000008
   12.61888885  158.42700195    0.88000000    2.42000008
   12.62222195  151.99099731    0.88000000    2.42000008
   12.62527752  166.60499573    0.88000000    2.42000008
   12.62861156  156.55999756    0.88000000    2.42000008
   12.63166714  162.41999817    0.88000000    2.42000008
   12.63500023  155.33599854    0.88000000    2.42000008
   12.64083290  155.33599854    0.88000000    2.42000008
   12.64499950  171.81700134    0.86000001    2.42000008
   12.64833355  168.07400513    0.88000000    2.42000008
   12.65166664  163.09800720    0.88000000    2.42000008
   12.65499973  157.37100220    0.88000000    2.42000008
   12.65805531  171.85499573    0.86000001    2.42000008
   12.66138840  162.64900208    0.86000001    2.44000006
   12.66444397  159.85099792    0.86000001    2.44000006
   12.66777802  156.55099487    0.86000001    2.44000006
   12.67111111  160.32499695    0.86000001    2.42000008
   12.67416668  161.24200439    0.86000001    2.44000006
   12.67750072  157.61599731    0.83999997    2.44000006
   12.67805576  158.71000671    0.83999997    2.44000006
   12.68388939  158.71000671    0.83999997    2.42000008
   12.68805599  158.40499878    0.83999997    2.44000006
   12.69111156  163.08900452    0.83999997    2.44000006
   12.69444466  170.81500244    0.81999999    2.44000006
   12.69750023  164.08999634    0.81999999    2.44000006
   12.70083332  165.97999573    0.81999999    2.44000006
   12.70416641  170.51600647    0.83999997    2.46000004
   12.70722198  167.25900269    0.81999999    2.44000006
   12.71055508  163.12199402    0.81999999    2.46000004
   12.71138859  164.92700195    0.81999999    2.46000004
   12.71416664  176.25199890    0.81999999    2.44000006
   12.71749973  155.43899536    0.81999999    2.46000004
   12.72055531  162.06500244    0.80000001    2.44000006
   12.72666645  162.06500244    0.80000001    2.44000006
   12.73083305  161.98500061    0.80000001    2.44000006
   12.73388958  156.28599548    0.80000001    2.46000004
   12.73722267  162.29499817    0.80000001    2.46000004
   12.74055576  155.98599243    0.81999999    2.46000004
   12.74361134  160.91900635    0.80000001    2.46000004
   12.74499989  153.45100403    0.80000001    2.46000004
   12.74722290  160.27900696    0.80000001    2.46000004
   12.75055599  165.01100159    0.80000001    2.46000004
   12.75361156  160.19099426    0.80000001    2.46000004
   12.75694466  160.74099731    0.80000001    2.46000004
   12.76027775  157.22300720    0.79000002    2.46000004
   12.76333332  157.94000244    0.79000002    2.46000004
   12.76944447  157.94000244    0.79000002    2.46000004
   12.77361107  165.72700500    0.80000001    2.46000004
   12.77694416  161.69599915    0.80000001    2.46000004
   12.77805519  161.55999756    0.80000001    2.46000004
   12.78027725  164.86700439    0.80000001    2.46000004
   12.78361130  155.77299500    0.80000001    2.46000004
   12.78666687  163.25399780    0.80000001    2.46000004
   12.79000092  162.12699890    0.79000002    2.46000004
   12.79333401  165.36300659    0.79000002    2.46000004
   12.79638958  164.56399536    0.79000002    2.46000004
   12.79972267  156.22599792    0.79000002    2.46000004
   12.80277824  164.13600159    0.76999998    2.46000004
   12.80611134  159.04499817    0.76999998    2.46000004
   12.81222248  159.04499817    0.76999998    2.48000002
   12.81638908  163.43699646    0.76999998    2.46000004
   12.81972218  161.93800354    0.75000000    2.46000004
   12.82277775  165.13400269    0.75000000    2.46000004
   12.82611084  164.72000122    0.75000000    2.48000002
   12.82944393  163.24600220    0.75000000    2.48000002
   12.83249950  163.93899536    0.75000000    2.48000002
   12.83583260  158.84700012    0.75000000    2.48000002
   12.83916664  158.69599915    0.75000000    2.48000002
   12.84222221  161.29400635    0.75000000    2.48000002
   12.84472179  163.01400757    0.75000000    2.46000004
   12.84583282  167.43400574    0.75000000    2.46000004
   12.84916592  166.68499756    0.75000000    2.48000002
   12.85527802  166.68499756    0.75000000    2.48000002
   12.85916710  165.08700562    0.75000000    2.48000002
   12.86250019  160.11900330    0.75000000    2.48000002
   12.86583328  163.94999695    0.75000000    2.48000002
   12.86916637  167.04899597    0.75000000    2.48000002
   12.87250042  170.07800293    0.75000000    2.48000002
   12.87555599  167.25900269    0.75000000    2.48000002
   12.87805557  164.80400085    0.73000002    2.48000002
   12.87916660  167.30900574    0.73000002    2.48000002
   12.88249969  160.11999512    0.73000002    2.48000002
   12.88555527  162.98699951    0.73000002    2.48000002
   12.88888836  166.54499817    0.73000002    2.48000002
   12.89222240  161.61199951    0.73000002    2.48000002
   12.89805508  161.61199951    0.73000002    2.50000000
   12.90222168  161.49299622    0.70999998    2.48000002
   12.90527725  160.66799927    0.70999998    2.50000000
   12.90861034  169.73699951    0.70999998    2.50000000
   12.91138840  164.30599976    0.70999998    2.50000000
   12.91222191  167.05200195    0.70999998    2.48000002
   12.91555500  162.12100220    0.70999998    2.48000002
   12.91861153  165.27000427    0.70999998    2.48000002
   12.92194462  169.35899353    0.70999998    2.50000000
   12.92527771  163.97599792    0.70999998    2.50000000
   12.92833328  167.48199463    0.70999998    2.48000002
   12.93166733  164.65400696    0.69000000    2.50000000
   12.93472195  159.30299377    0.69000000    2.50000000
   12.94083309  159.30299377    0.69000000    2.50000000
   12.94499969  164.65499878    0.69000000    2.50000000
   12.94833374  158.10600281    0.69000000    2.50000000
   12.95138836  163.66700745    0.69000000    2.50000000
   12.95472240  160.42999268    0.69000000    2.50000000
   12.95777798  162.20199585    0.69000000    2.50000000
   12.96111107  167.44999695    0.69000000    2.51999998
   12.96444416  163.93499756    0.69000000    2.51999998
   12.96749973  164.27999878    0.69000000    2.51999998
   12.97111034  167.83099365    0.69000000    2.51999998
   12.97444439  157.91299438    0.69000000    2.50000000
   12.97777748  167.18200684    0.69000000    2.50000000
   12.97833252  159.21400452    0.69000000    2.50000000
   12.99916649  159.21400452    0.69000000    2.51999998
   13.00333309  162.94900513    0.69000000    2.51999998
   13.00638866  162.29699707    0.69000000    2.51999998
   13.00972176  155.34599304    0.69000000    2.51999998
   13.01166630  157.92100525    0.69000000    2.51999998
   13.01333332  160.48899841    0.69000000    2.51999998
   13.01666641  164.10299683    0.69000000    2.50000000
   13.01972198  162.06799316    0.69000000    2.51999998
   13.02305508  166.58000183    0.69000000    2.51999998
   13.02611065  160.93200684    0.70999998    2.51999998
   13.02944374  159.50399780    0.69000000    2.51999998
   13.03277779  155.27000427    0.69000000    2.51999998
   13.03583336  161.44299316    0.69000000    2.51999998
   13.04194450  161.44299316    0.70999998    2.51999998
   13.04583359  168.74099731    0.69000000    2.51999998
   13.04916668  166.03500366    0.69000000    2.51999998
   13.05249977  158.39599609    0.70999998    2.51999998
   13.05555534  161.13099670    0.69000000    2.51999998
   13.05888939  164.11399841    0.69000000    2.51999998
   13.06222248  161.76300049    0.67000002    2.51999998
   13.06527805  166.64900208    0.67000002    2.51999998
   13.06861115  162.16400146    0.69000000    2.51999998
   13.07166672  166.30000305    0.67000002    2.51999998
   13.07499981  166.49000549    0.69000000    2.53999996
   13.07833290  170.96299744    0.67000002    2.51999998
   13.07861137  170.52000427    0.67000002    2.51999998
   13.08472157  170.52000427    0.69000000    2.51999998
   13.08888817  165.79899597    0.69000000    2.53999996
   13.09222221  169.01100159    0.67000002    2.51999998
   13.09527779  172.15699768    0.67000002    2.51999998
   13.09861088  181.69099426    0.67000002    2.53999996
   13.10194492  169.90299988    0.67000002    2.53999996
   13.10500050  167.50199890    0.69000000    2.53999996
   13.10833359  182.18200684    0.67000002    2.53999996
   13.11166668  189.07400513    0.67000002    2.53999996
   13.11222267  167.49800110    0.67000002    2.53999996
   13.11500072  166.52000427    0.67000002    2.53999996
   13.11833382  164.65400696    0.67000002    2.53999996
   13.12166691  165.36099243    0.67000002    2.53999996
   13.12750053  165.36099243    0.64999998    2.53999996
   13.13166714  159.07299805    0.67000002    2.53999996
   13.13500023  163.78300476    0.64999998    2.53999996
   13.13805580  160.58700562    0.64999998    2.53999996
   13.14138889  169.17399597    0.64999998    2.53999996
   13.14472198  168.57400513    0.64999998    2.53999996
   13.14527798  168.00300598    0.64999998    2.53999996
   13.14805508  167.73100281    0.67000002    2.53999996
   13.15138817  173.53599548    0.67000002    2.53999996
   13.15444374  171.32699585    0.64999998    2.53999996
   13.15777779  164.44599915    0.64999998    2.53999996
   13.16111088  161.03999329    0.64999998    2.53999996
   13.16416645  167.38800049    0.64999998    2.55999994
   13.17027855  167.38800049    0.64999998    2.55999994
   13.17444515  167.40699768    0.64999998    2.55999994
   13.17777824  167.81500244    0.64999998    2.55999994
   13.17861176  162.16799927    0.64999998    2.53999996
   13.18138885  160.44999695    0.64999998    2.53999996
   13.18472195  162.58500671    0.64999998    2.53999996
   13.18777752  170.61799622    0.63000000    2.53999996
   13.19111156  175.32000732    0.64999998    2.53999996
   13.19444466  166.49400330    0.63000000    2.53999996
   13.19750023  174.91900635    0.63000000    2.53999996
   13.20083332  184.71800232    0.63000000    2.53999996
   13.20416641  182.07099915    0.64999998    2.55999994
   13.20722198  174.06399536    0.63000000    2.55999994
   13.21333313  174.06399536    0.63000000    2.53999996
   13.21722221  176.48899841    0.63000000    2.55999994
   13.22055531  171.92900085    0.63000000    2.55999994
   13.22388840  160.43400574    0.63000000    2.55999994
   13.22694397  178.39399719    0.61000001    2.55999994
   13.23027706  170.82400513    0.63000000    2.53999996
   13.23361111  171.42799377    0.61000001    2.55999994
   13.23666668  177.68600464    0.61000001    2.55999994
   13.24000072  174.47099304    0.61000001    2.53999996
   13.24305534  176.43299866    0.61000001    2.53999996
   13.24527836  182.60000610    0.63000000    2.55999994
   13.24666691  181.27499390    0.63000000    2.55999994
   13.25000000  178.35600281    0.61000001    2.55999994
   13.25611115  178.35600281    0.63000000    2.55999994
   13.26027775  189.29499817    0.61000001    2.55999994
   13.26333332  178.27600098    0.61000001    2.55999994
   13.26666641  174.36599731    0.63000000    2.55999994
   13.26999950  170.41900635    0.63000000    2.55999994
   13.27305508  174.17199707    0.67000002    2.55999994
   13.27638817  173.25500488    0.67000002    2.55999994
   13.27888870  159.97700500    0.63000000    2.55999994
   13.27999973  172.24400330    0.63000000    2.55999994
   13.28333378  157.02799988    0.63000000    2.55999994
   13.28638935  163.43099976    0.61000001    2.57999992
   13.28972244  166.45199585    0.61000001    2.55999994
   13.29305553  158.74299622    0.61000001    2.55999994
   13.29888916  158.74299622    0.61000001    2.55999994
   13.30305576  165.28500366    0.64999998    2.55999994
   13.30638885  160.16799927    0.63000000    2.55999994
   13.30944443  160.08999634    0.64999998    2.57999992
   13.31222248  162.80299377    0.64999998    2.55999994
   13.31305599  161.14700317    0.64999998    2.55999994
   13.31638908  159.48899841    0.64999998    2.55999994
   13.31944466  160.66499329    0.67000002    2.55999994
   13.32277775  160.26100159    0.69000000    2.57999992
   13.32611084  170.82000732    0.69000000    2.55999994
   13.32916641  159.19500732    0.69000000    2.55999994
   13.33249950  166.10600281    0.69000000    2.55999994
   13.33583260  161.28599548    0.67000002    2.55999994
   13.34166622  161.28599548    0.63000000    2.57999992
   13.34583282  169.06700134    0.63000000    2.57999992
   13.34916592  166.22099304    0.61000001    2.55999994
   13.35222244  166.43400574    0.61000001    2.55999994
   13.35555553  174.49000549    0.61000001    2.57999992
   13.35888958  160.86999512    0.61000001    2.57999992
   13.36194515  147.04800415    0.58999997    2.57999992
   13.36527824  161.67199707    0.58999997    2.57999992
   13.36861134  163.15600586    0.58999997    2.57999992
   13.37166691  159.39799500    0.58999997    2.57999992
   13.37500000  157.47599792    0.58999997    2.57999992
   13.37833309  157.61700439    0.58999997    2.57999992
   13.37888908  152.92599487    0.58999997    2.57999992
   13.38472176  152.92599487    0.58999997    2.57999992
   13.38861084  161.73399353    0.58999997    2.57999992
   13.39194393  160.55200195    0.58999997    2.57999992
   13.39527798  155.61000061    0.58999997    2.57999992
   13.39833355  154.13299561    0.56999999    2.57999992
   13.40166664  156.89199829    0.58999997    2.57999992
   13.40499973  156.24499512    0.58999997    2.57999992
   13.40805531  157.94700623    0.58999997    2.57999992
   13.41138840  146.74000549    0.58999997    2.55999994
   13.41222191  152.36799622    0.58999997    2.55999994
   13.41499996  156.75100708    0.61000001    2.57999992
   13.41805553  150.01699829    0.61000001    2.57999992
   13.42138958  164.13099670    0.58999997    2.57999992
   13.42750072  164.13099670    0.58999997    2.57999992
   13.43166733  149.29600525    0.58999997    2.57999992
   13.43472195  155.40100098    0.58999997    2.57999992
   13.43805599  156.45300293    0.58999997    2.59999990
   13.44138908  166.09100342    0.58999997    2.57999992
   13.44444466  153.34199524    0.58999997    2.57999992
   13.44555569  155.82800293    0.58999997    2.59999990
   13.44805527  148.90899658    0.58999997    2.59999990
   13.45138836  155.93600464    0.58999997    2.57999992
   13.45472240  153.31799316    0.58999997    2.59999990
   13.45777798  155.64700317    0.58999997    2.57999992
   13.46111107  157.75399780    0.64999998    2.57999992
   13.46444416  154.61099243    0.64999998    2.57999992
   13.47027779  154.61099243    0.92000002    2.57999992
   13.47444439  156.73100281    1.13000000    2.59999990
   13.47777748  161.45300293    0.98000002    2.57999992
   13.47888851  160.24200439    0.98000002    2.57999992
   13.48111057  152.30099487    0.70999998    2.57999992
   13.48444462  156.86399841    0.64999998    2.59999990
   13.48777771  150.84700012    0.64999998    2.59999990
   13.49083328  144.54200745    0.67000002    2.59999990
   13.49416733  147.90800476    0.63000000    2.59999990
   13.49750042  157.64199829    0.58999997    2.59999990
   13.50055599  155.36599731    0.58999997    2.59999990
   13.50388908  149.04600525    0.56999999    2.59999990
   13.50722218  152.57200623    0.56999999    2.59999990
   13.51305580  152.57200623    0.56999999    2.59999990
   13.51722240  150.02600098    0.56999999    2.59999990
   13.52055550  154.96499634    0.58999997    2.57999992
   13.52388859  154.08000183    0.58999997    2.57999992
   13.52694416  152.41600037    0.61000001    2.59999990
   13.53027725  155.92900085    0.64999998    2.59999990
   13.53333378  160.57600403    0.69000000    2.59999990
   13.53666687  162.36300659    0.69000000    2.59999990
   13.54000092  156.56900024    0.63000000    2.59999990
   13.54305553  158.28999329    0.63000000    2.61999989
   13.54555607  157.41999817    0.64999998    2.59999990
   13.54694462  167.45500183    0.64999998    2.59999990
   13.55000019  159.43099976    0.63000000    2.59999990
   13.55611134  159.43099976    0.64999998    2.59999990
   13.56027794  147.52299500    0.64999998    2.57999992
   13.56333351  164.54400635    0.64999998    2.59999990
   13.56666660  156.78300476    0.64999998    2.59999990
   13.56972218  153.47399902    0.64999998    2.59999990
   13.57305527  166.88400269    0.64999998    2.61999989
   13.57638836  152.06900024    0.64999998    2.59999990
   13.57888889  152.39700317    0.64999998    2.59999990
   13.57999992  154.94400024    0.64999998    2.59999990
   13.58305550  150.74000549    0.61000001    2.59999990
   13.58638859  162.16299438    0.63000000    2.59999990
   13.58944416  161.46800232    0.63000000    2.59999990
   13.59277725  163.50599670    0.63000000    2.59999990
   13.59888840  163.50599670    0.70999998    2.59999990
   13.60305595  160.54100037    0.79000002    2.59999990
   13.60611153  170.83500671    0.79000002    2.59999990
   13.60944462  160.50399780    0.81999999    2.59999990
   13.61222267  160.45899963    0.88000000    2.59999990
   13.61277771  158.95199585    0.88000000    2.59999990
   13.61611176  151.29600525    0.86000001    2.61999989
   13.61944485  157.45799255    0.86000001    2.59999990
   13.62250042  149.99299622    0.88000000    2.59999990
   13.62583351  148.13900757    0.86000001    2.61999989
   13.62916660  148.71800232    0.89999998    2.61999989
   13.63222218  155.21899414    0.89999998    2.61999989
   13.63555527  150.02000427    0.98000002    2.59999990
   13.64166641  150.02000427    0.94000000    2.61999989
   13.64583302  151.41799927    0.94000000    2.61999989
   13.64916611  165.04100037    0.95999998    2.59999990
   13.65222168  161.29499817    0.95999998    2.59999990
   13.65555477  151.33999634    0.95999998    2.59999990
   13.65861034  163.39100647    1.01999998    2.61999989
   13.66194439  162.99800110    1.13000000    2.61999989
   13.66527748  158.54800415    1.13000000    2.61999989
   13.66833401  162.69000244    1.05999994    2.61999989
   13.67166710  161.08900452    0.98000002    2.59999990
   13.67500019  153.69200134    0.86000001    2.61999989
   13.67805576  159.72300720    0.81999999    2.61999989
   13.67888927  152.41499329    0.81999999    2.61999989
   13.68444443  152.41499329    0.69000000    2.61999989
   13.68861103  158.64799500    0.63000000    2.61999989
   13.69194412  150.61799622    0.63000000    2.61999989
   13.69499969  148.92500305    0.63000000    2.61999989
   13.69833374  154.66999817    0.61000001    2.61999989
   13.70166683  150.26199341    0.58999997    2.61999989
   13.70472240  157.15199280    0.58999997    2.61999989
   13.70805550  151.62699890    0.58999997    2.64000010
   13.71138859  148.23899841    0.58999997    2.64000010
   13.71222210  150.28300476    0.61000001    2.61999989
   13.71500015  155.84399414    0.61000001    2.61999989
   13.71805477  152.88900757    0.61000001    2.61999989
   13.72138882  152.10499573    0.61000001    2.61999989
   13.72749996  152.10499573    0.63000000    2.61999989
   13.73138809  144.22700500    0.63000000    2.61999989
   13.73472214  146.76699829    0.64999998    2.61999989
   13.73805618  150.95500183    0.64999998    2.61999989
   13.74111176  160.02999878    0.63000000    2.64000010
   13.74444485  162.78199768    0.61000001    2.64000010
   13.74555588  149.82499695    0.61000001    2.64000010
   13.74805546  158.25799561    0.56999999    2.61999989
   13.75111103  156.47399902    0.56999999    2.61999989
   13.75444412  148.22200012    0.55000001    2.64000010
   13.75749969  152.07699585    0.55000001    2.61999989
   13.76083374  150.75599670    0.55000001    2.61999989
   13.76416683  154.20799255    0.55000001    2.61999989
   13.77027798  154.20799255    0.55000001    2.61999989
   13.77416611  162.74299622    0.55000001    2.64000010
   13.77750015  147.91299438    0.55000001    2.64000010
   13.77888870  153.32600403    0.55000001    2.64000010
   13.78138828  153.57499695    0.52999997    2.64000010
   13.78444481  148.09399414    0.52999997    2.61999989
   13.78777790  156.77499390    0.55000001    2.61999989
   13.79083347  142.89999390    0.55000001    2.61999989
   13.79416752  154.99899292    0.55000001    2.64000010
   13.79750061  148.79400635    0.55000001    2.61999989
   13.80055618  158.44200134    0.55000001    2.61999989
   13.80388927  152.62600708    0.55000001    2.64000010
   13.80694485  153.36199951    0.55000001    2.61999989
   13.81305599  153.36199951    0.55000001    2.64000010
   13.81722260  148.35499573    0.55000001    2.64000010
   13.82055569  157.21200562    0.55000001    2.61999989
   13.82361126  157.71299744    0.55000001    2.61999989
   13.82694435  148.89199829    0.52999997    2.64000010
   13.82999992  149.46299744    0.52999997    2.64000010
   13.83333302  149.34199524    0.52999997    2.64000010
   13.83666611  147.32099915    0.52999997    2.64000010
   13.84000015  147.17900085    0.52999997    2.64000010
   13.84305477  141.29100037    0.52999997    2.64000010
   13.84555531  147.42700195    0.52999997    2.64000010
   13.84694386  153.26699829    0.52999997    2.64000010
   13.85027790  150.94700623    0.52999997    2.64000010
   13.85583401  150.94700623    0.52999997    2.61999989
   13.86000061  147.81100464    0.52999997    2.64000010
   13.86333370  153.40100098    0.52999997    2.64000010
   13.86638927  152.94999695    0.52999997    2.64000010
   13.86972237  150.59700012    0.52999997    2.64000010
   13.87305546  157.53100586    0.52999997    2.64000010
   13.87611103  155.65400696    0.51999998    2.64000010
   13.87888908  151.90499878    0.51999998    2.64000010
   13.88000011  150.77299500    0.51999998    2.64000010
   13.88305569  165.25300598    0.51999998    2.64000010
   13.88638878  150.46800232    0.51999998    2.64000010
   13.88944435  152.58099365    0.52999997    2.64000010
   13.89277744  153.30400085    0.52999997    2.64000010
   13.89861107  153.30400085    0.52999997    2.64000010
   13.90277767  150.71899414    0.52999997    2.64000010
   13.90611076  150.73800659    0.51999998    2.64000010
   13.90944386  150.19799805    0.51999998    2.64000010
   13.91222191  147.71400452    0.51999998    2.64000010
   13.91305542  149.60800171    0.51999998    2.64000010
   13.91611099  145.59599304    0.51999998    2.64000010
   13.91944504  151.09300232    0.51999998    2.64000010
   13.92250061  145.31399536    0.51999998    2.64000010
   13.92583370  145.67399597    0.51999998    2.64000010
   13.92916679  152.51499939    0.50000000    2.64000010
   13.93222237  158.06900024    0.51999998    2.64000010
   13.93555546  143.34100342    0.51999998    2.64000010
   13.94166660  143.34100342    0.51999998    2.64000010
   13.94555569  150.59700012    0.51999998    2.66000009
   13.94888878  149.96299744    0.51999998    2.64000010
   13.95222187  132.94099426    0.52999997    2.64000010
   13.95527744  150.18499756    0.52999997    2.64000010
   13.95861053  146.63699341    0.55000001    2.64000010
   13.96194458  144.77299500    0.55000001    2.64000010
   13.96500015  147.27699280    0.52999997    2.66000009
   13.96833324  143.54100037    0.55000001    2.64000010
   13.97166634  145.14300537    0.52999997    2.64000010
   13.97499943  153.66799927    0.52999997    2.64000010
   13.97805500  146.44400024    0.52999997    2.64000010
   13.97888851  149.34800720    0.52999997    2.64000010
   13.98444462  149.34800720    0.52999997    2.66000009
   13.98861122  154.31300354    0.51999998    2.66000009
   13.99166679  154.17700195    0.52999997    2.64000010
   13.99499989  154.69200134    0.52999997    2.64000010
   14.01249981  151.98300171    0.51999998    2.64000010
   14.01500034  150.63400269    0.51999998    2.66000009
   14.01805496  143.71800232    0.51999998    2.64000010
   14.02138901  148.42500305    0.50000000    2.66000009
   14.02750015  148.42500305    0.50000000    2.64000010
   14.03138828  151.72500610    0.50000000    2.64000010
   14.03472233  137.66499329    0.50000000    2.66000009
   14.03805637  145.89799500    0.50000000    2.66000009
   14.04111195  147.25000000    0.50000000    2.66000009
   14.04444504  147.77400208    0.50000000    2.66000009
   14.04583359  145.59500122    0.50000000    2.66000009
   14.04805565  151.85699463    0.50000000    2.66000009
   14.05111122  150.15199280    0.50000000    2.66000009
   14.05444431  153.17999268    0.50000000    2.66000009
   14.05749989  158.12899780    0.50000000    2.66000009
   14.06083393  155.52799988    0.50000000    2.66000009
   14.06416702  161.90600586    0.50000000    2.66000009
   14.07027817  161.90600586    0.50000000    2.66000009
   14.07444477  152.93400574    0.50000000    2.66000009
   14.07777786  242.05999756    0.50000000    2.66000009
   14.07916641  259.00100708    0.51999998    2.66000009
   14.08138847  158.21800232    0.51999998    2.66000009
   14.08472157  155.21099854    0.50000000    2.64000010
   14.08777714  144.34399414    0.51999998    2.66000009
   14.09111118  155.70799255    0.51999998    2.66000009
   14.09444427  151.18899536    0.51999998    2.66000009
   14.09749985  157.54499817    0.51999998    2.66000009
   14.10083389  159.45899963    0.50000000    2.66000009
   14.10416698  142.02000427    0.50000000    2.66000009
   14.10722256  143.98800659    0.50000000    2.66000009
   14.11305618  143.98800659    0.50000000    2.66000009
   14.11722279  147.95199585    0.50000000    2.66000009
   14.12055588  150.30999756    0.50000000    2.66000009
   14.12361145  154.23699951    0.50000000    2.66000009
   14.12694454  154.61399841    0.50000000    2.66000009
   14.13027763  150.41600037    0.50000000    2.67000008
   14.13333321  142.98399353    0.47999999    2.66000009
   14.13666630  145.46400452    0.47999999    2.66000009
   14.13972187  149.08399963    0.47999999    2.66000009
   14.14305496  137.16400146    0.50000000    2.66000009
   14.14583302  147.41099548    0.50000000    2.66000009
   14.14666653  141.16200256    0.47999999    2.66000009
   14.14972210  142.57400513    0.47999999    2.67000008
   14.15583324  142.57400513    0.47999999    2.66000009
   14.15999985  147.19500732    0.47999999    2.66000009
   14.16333294  152.70300293    0.47999999    2.66000009
   14.16666698  155.00700378    0.47999999    2.66000009
   14.16972256  150.41499329    0.47999999    2.66000009
   14.17305565  147.66700745    0.47999999    2.66000009
   14.17611122  150.82299805    0.47999999    2.66000009
   14.17916679  156.27999878    0.47999999    2.66000009
   14.18000031  155.29200745    0.47999999    2.66000009
   14.18305588  152.73100281    0.47999999    2.66000009
   14.18638897  153.00700378    0.47999999    2.66000009
   14.18972206  149.07600403    0.47999999    2.67000008
   14.19277763  155.67300415    0.47999999    2.66000009
   14.19888878  155.67300415    0.47999999    2.67000008
   14.20277786  151.00199890    0.47999999    2.66000009
   14.20611095  156.74699402    0.46000001    2.66000009
   14.20944405  147.49800110    0.47999999    2.66000009
   14.21249962  147.88499451    0.46000001    2.66000009
   14.21305561  149.79899597    0.46000001    2.66000009
   14.21611118  147.09100342    0.46000001    2.66000009
   14.21944427  153.82299805    0.46000001    2.67000008
   14.22277737  149.61399841    0.46000001    2.66000009
   14.22583294  146.12899780    0.46000001    2.67000008
   14.22916603  147.93099976    0.46000001    2.67000008
   14.23222160  142.25700378    0.46000001    2.66000009
   14.23555565  149.69400024    0.46000001    2.55999994
   14.24166679  149.69400024    0.46000001    2.67000008
   14.24583340  142.88200378    0.46000001    2.67000008
   14.24611092  141.67900085    0.46000001    2.67000008
   14.24944496  148.42199707    0.46000001    2.67000008
   14.25277805  147.19500732    0.46000001    2.67000008
   14.25583363  157.32600403    4.90999985    2.66000009
   14.25916672  144.28500366    4.90999985    2.67000008
   14.26222229  156.86599731    4.90999985    2.67000008
   14.26555538  143.83700562    4.90999985    2.66000009
   14.26888847  157.09199524    4.90999985    2.66000009
   14.27194405  144.55299377    4.90999985    2.66000009
   14.27527714  151.44299316    4.90999985    2.67000008
   14.27861118  155.91700745    4.90999985    2.67000008
   14.27944374  152.15400696    4.90999985    2.67000008
   14.28444481  152.15400696    4.90999985    2.67000008
   14.28861141  155.24800110    4.90999985    2.67000008
   14.29166698  148.94299316    4.90999985    2.66000009
   14.29500008  145.41900635    4.90999985    2.67000008
   14.29833412  149.61399841    4.90999985    2.67000008
   14.30138874  137.71400452    4.90999985    2.67000008
   14.30472279  152.30799866    4.90999985    2.67000008
   14.30805588  151.41900635    4.90999985    2.67000008
   14.31111145  141.09899902    4.90999985    2.67000008
   14.31277752  151.32499695    4.90999985    2.67000008
   14.31472206  150.26400757    4.90999985    2.67000008
   14.31805515  144.64900208    4.90999985    2.67000008
   14.32111073  151.44200134    4.90999985    2.67000008
   14.32722187  151.44200134    4.90999985    2.67000008
   14.33138847  146.21699524    4.90999985    2.67000008
   14.33472157  142.94900513    4.90999985    2.67000008
   14.33777714  150.30200195    4.90999985    2.67000008
   14.34111118  146.02099609    4.90999985    2.67000008
   14.34444427  156.45700073    4.90999985    2.67000008
   14.34611034  151.14999390    4.90999985    2.67000008
   14.34777737  145.83000183    4.90999985    2.67000008
   14.35111141  148.74099731    4.90999985    2.67000008
   14.35416698  152.36300659    4.90999985    2.67000008
   14.35750008  146.35099792    4.90999985    2.67000008
   14.36083412  152.08999634    4.90999985    2.67000008
   14.36388969  148.35899353    4.90999985    2.67000008
   14.37027836  148.35899353    4.90999985    2.67000008
   14.37416649  151.02499390    4.90999985    2.67000008
   14.37750053  146.39700317    4.90999985    2.67000008
   14.37944412  140.55799866    4.90999985    2.67000008
   14.38111115  152.07600403    4.90999985    2.67000008
   14.38444424  148.40499878    4.90999985    2.67000008
   14.38749981  141.19599915    4.90999985    2.67000008
   14.39083290  141.66200256    4.90999985    2.67000008
   14.39416695  153.32099915    4.90999985    2.67000008
   14.39722252  150.17799377    4.90999985    2.67000008
   14.40055561  152.66600037    4.90999985    2.67000008
   14.40361118  150.66299438    4.90999985    2.67000008
   14.40694427  142.96000671    4.90999985    2.67000008
   14.41305542  142.96000671    4.90999985    2.67000008
   14.41722298  150.97099304    4.90999985    2.67000008
   14.42027855  148.98500061    4.90999985    2.69000006
   14.42361164  146.14500427    4.90999985    2.67000008
   14.42666721  156.86700439    4.90999985    2.67000008
   14.43000031  148.63200378    4.90999985    2.67000008
   14.43333340  148.71699524    4.90999985    2.67000008
   14.43638897  146.19799805    4.90999985    2.67000008
   14.43972206  146.23100281    4.90999985    2.67000008
   14.44305515  146.89399719    4.90999985    2.69000006
   14.44611073  139.85699463    4.90999985    2.67000008
   14.44666672  150.15699768    4.90999985    2.67000008
   14.44999981  156.97999573    4.90999985    2.69000006
   14.45583344  156.97999573    4.90999985    2.67000008
   14.46000004  142.90800476    4.90999985    2.67000008
   14.46333313  148.43499756    4.90999985    2.67000008
   14.46638870  149.22999573    4.90999985    2.67000008
   14.46972179  151.96400452    4.90999985    2.67000008
   14.47277737  158.45399475    4.90999985    2.67000008
   14.47611046  144.85000610    4.90999985    2.67000008
   14.47944355  149.85400391    4.90999985    2.69000006
   14.47972202  142.44000244    4.90999985    2.69000006
   14.48305511  150.35299683    4.90999985    2.69000006
   14.48638916  146.08299255    4.90999985    2.67000008
   14.48944473  136.80299377    4.90999985    2.69000006
   14.49277782  148.82000732    4.90999985    2.67000008
   14.49861145  148.82000732    4.90999985    2.69000006
   14.50277805  145.08999634    4.90999985    2.69000006
   14.50611115  138.58299255    4.90999985    2.67000008
   14.50916672  141.02299500    4.90999985    2.69000006
   14.51249981  146.30700684    4.90999985    2.69000006
   14.51305580  140.05700684    4.90999985    2.69000006
   14.51611137  143.27600098    4.90999985    2.67000008
   14.51944447  147.19299316    4.90999985    2.69000006
   14.52250004  153.15600586    4.90999985    2.69000006
   14.52583313  146.80799866    4.90999985    2.69000006
   14.52916622  138.97099304    4.90999985    2.67000008
   14.53222179  149.88000488    4.90999985    2.69000006
   14.53555584  155.22399902    4.90999985    2.69000006
   14.54138947  155.22399902    4.90999985    2.69000006
   14.54555607  146.33500671    4.90999985    2.67000008
   14.54638958  139.61500549    4.90999985    2.69000006
   14.54916668  140.32499695    4.90999985    2.69000006
   14.55249977  142.34300232    4.90999985    2.69000006
   14.55555534  142.19200134    4.90999985    2.69000006
   14.55888939  148.57099915    4.90999985    2.69000006
   14.56222248  146.08900452    4.90999985    2.69000006
   14.56527805  153.60499573    4.90999985    2.69000006
   14.56861115  148.48699951    4.90999985    2.69000006
   14.57166672  144.40400696    4.90999985    2.69000006
   14.57499981  147.08099365    4.90999985    2.69000006
   14.57833290  153.08900452    4.90999985    2.69000006
   14.57999992  133.56300354    4.90999985    2.69000006
   14.58444405  133.56300354    4.90999985    2.69000006
   14.58861065  141.00199890    4.90999985    2.71000004
   14.59166622  150.85000610    4.90999985    2.69000006
   14.59499931  142.67799377    4.90999985    2.69000006
   14.59805489  143.31399536    4.90999985    2.69000006
   14.60138893  141.30599976    4.90999985    2.69000006
   14.60472298  142.53700256    4.90999985    2.69000006
   14.60805607  145.04600525    4.90999985    2.69000006
   14.61111164  156.96099854    4.90999985    2.67000008
   14.61333370  147.31300354    4.90999985    2.69000006
   14.61472225  137.89500427    4.90999985    2.69000006
   14.61805534  140.15499878    4.90999985    2.69000006
   14.62111092  134.44299316    4.90999985    2.69000006
   14.62722206  134.44299316    4.90999985    2.69000006
   14.63138866  141.00199890    4.90999985    2.71000004
   14.63444424  142.72799683    4.90999985    2.69000006
   14.63777733  138.54699707    4.90999985    2.69000006
   14.64111137  130.08700562    4.90999985    2.69000006
   14.64416695  143.52400208    4.90999985    2.69000006
   14.64666653  158.96099854    4.90999985    2.69000006
   14.64777756  155.01199341    4.90999985    2.69000006
   14.65111065  148.43899536    4.90999985    2.71000004
   14.65416622  147.57800293    4.90999985    2.69000006
   14.65749931  152.86799622    4.90999985    2.69000006
   14.66083336  153.51199341    4.90999985    2.69000006
   14.66388893  142.97999573    4.90999985    2.69000006
   14.67000008  142.97999573    4.90999985    2.69000006
   14.67416668  144.69799805    4.90999985    2.69000006
   14.67750072  142.86000061    4.90999985    2.69000006
   14.68000031  144.78500366    4.90999985    2.69000006
   14.68083382  146.64300537    4.90999985    2.69000006
   14.68416691  152.52200317    4.90999985    2.69000006
   14.68722248  141.15299988    4.90999985    2.69000006
   14.69055557  146.39500427    4.90999985    2.71000004
   14.69388866  145.84500122    4.90999985    2.71000004
   14.69694424  140.31100464    4.90999985    2.69000006
   14.70027733  144.57699585    4.90999985    2.69000006
   14.70361137  137.04499817    4.90999985    2.69000006
   14.70666695  147.90600586    4.90999985    2.69000006
   14.71277714  147.90600586    4.90999985    2.69000006
   14.71694374  145.95899963    4.90999985    2.69000006
   14.72027779  146.10299683    4.90999985    2.71000004
   14.72361088  138.21400452    4.90999985    2.71000004
   14.72666645  139.07800293    4.90999985    2.69000006
   14.72999954  152.11999512    4.90999985    2.69000006
   14.73305511  151.65699768    4.90999985    2.69000006
   14.73638916  164.53500366    4.90999985    2.71000004
   14.73972225  144.54899597    4.90999985    2.69000006
   14.74277782  143.97000122    4.90999985    2.69000006
   14.74611092  146.65699768    4.90999985    2.69000006
   14.74777794  147.16999817    4.90999985    2.69000006
   14.74972248  153.94099426    4.90999985    2.71000004
   14.75583363  153.94099426    4.90999985    2.71000004
   14.76000023  155.93099976    4.90999985    2.71000004
   14.76305580  147.05799866    4.90999985    2.71000004
   14.76638889  152.95899963    4.90999985    2.71000004
   14.76972198  148.13400269    4.90999985    2.69000006
   14.77277756  146.16400146    4.90999985    2.71000004
   14.77611065  152.86599731    4.90999985    2.71000004
   14.77916622  141.06799316    4.90999985    2.69000006
   14.78111076  146.03999329    4.90999985    2.69000006
   14.78277779  137.47599792    4.90999985    2.69000006
   14.78611183  143.13299561    4.90999985    2.71000004
   14.78916740  143.17300415    4.90999985    2.71000004
   14.79250050  141.83700562    4.90999985    2.71000004
   14.79861164  141.83700562    4.90999985    2.69000006
   14.80277824  143.35800171    4.90999985    2.69000006
   14.80583382  136.68099976    4.90999985    2.69000006
   14.80916691  143.46699524    4.90999985    2.71000004
   14.81250000  143.26800537    4.90999985    2.69000006
   14.81472206  140.96299744    4.90999985    2.71000004
   14.81611156  148.95899963    4.90999985    2.71000004
   14.81916618  129.23300171    4.90999985    2.69000006
   14.82250023  140.03100586    4.90999985    2.71000004
   14.82583332  148.13800049    4.90999985    2.71000004
   14.82888889  148.23800659    4.90999985    2.71000004
   14.83222198  150.95199585    4.90999985    2.71000004
   14.83555508  150.48500061    4.90999985    2.71000004
   14.84138870  150.48500061    4.90999985    2.69000006
   14.84555531  152.32899475    4.90999985    2.71000004
   14.84805489  146.04400635    4.90999985    2.71000004
   14.84916592  158.38600159    4.90999985    2.71000004
   14.85222244  152.22900391    4.90999985    2.69000006
   14.85555553  146.85499573    4.90999985    2.71000004
   14.85888958  144.77900696    4.90999985    2.71000004
   14.86194515  146.66900635    4.90999985    2.71000004
   14.86527824  143.42999268    4.90999985    2.71000004
   14.86861134  151.10899353    4.90999985    2.71000004
   14.87166691  147.04899597    4.90999985    2.71000004
   14.87500000  146.96499634    4.90999985    2.71000004
   14.87805557  150.76300049    4.90999985    2.71000004
   14.88416672  150.76300049    4.90999985    2.71000004
   14.88833332  138.51100159    4.90999985    2.71000004
   14.89166641  140.88900757    4.90999985    2.71000004
   14.89499950  152.79299927    4.90999985    2.73000002
   14.89805508  138.85499573    4.90999985    2.71000004
   14.90138817  155.24200439    4.90999985    2.69000006
   14.90444374  143.55299377    4.90999985    2.71000004
   14.90777779  141.99400330    4.90999985    2.71000004
   14.91111088  142.61000061    4.90999985    2.71000004
   14.91416645  144.27299500    4.90999985    2.71000004
   14.91527748  146.24400330    4.90999985    2.71000004
   14.91777802  147.21400452    4.90999985    2.69000006
   14.92111111  146.96000671    4.90999985    2.71000004
   14.92722225  146.96000671    4.90999985    2.71000004
   14.93138885  148.36300659    4.90999985    2.71000004
   14.93444443  134.56700134    4.90999985    2.71000004
   14.93777752  142.29100037    4.90999985    2.71000004
   14.94111156  144.05400085    4.90999985    2.69000006
   14.94416714  152.36599731    4.90999985    2.71000004
   14.94750023  145.18400574    4.90999985    2.71000004
   14.94861126  146.17500305    4.90999985    2.71000004
   14.95083332  143.02000427    4.90999985    2.69000006
   14.95416641  138.78599548    4.90999985    2.71000004
   14.95749950  137.72200012    4.90999985    2.71000004
   14.96055508  141.52000427    4.90999985    2.71000004
   14.96388912  145.27900696    4.90999985    2.71000004
   14.96999931  145.27900696    4.90999985    2.71000004
   14.97416592  148.53300476    4.90999985    2.71000004
   14.97722149  145.59199524    4.90999985    2.71000004
   14.98055553  141.76600647    4.90999985    2.71000004
   14.98194408  149.86700439    4.90999985    2.73000002
   14.98416710  144.77200317    4.90999985    2.71000004
   14.98750019  142.69000244    4.90999985    2.71000004
   14.99055576  151.89900208    4.90999985    2.71000004
   14.99388885  146.39700317    4.90999985    2.71000004
   14.99722290  143.69000244    4.90999985    2.71000004
   15.00027752  145.03199768    4.90999985    2.71000004
   15.00361156  150.11500549    4.90999985    2.71000004
   15.00666714  135.02000427    4.90999985    2.71000004
   15.01277733  135.02000427    4.90999985    2.71000004
   15.03111076  143.29699707    4.90999985    2.71000004
   15.03444481  137.77099609    4.90999985    2.71000004
   15.03777790  139.09199524    4.90999985    2.71000004
   15.04083347  149.54400635    4.90999985    2.71000004
   15.04416752  149.02299500    4.90999985    2.71000004
   15.04750061  142.99899292    4.90999985    2.71000004
   15.05055618  141.73199463    4.90999985    2.73000002
   15.05583382  141.73199463    4.90999985    2.71000004
   15.06000042  137.67300415    4.90999985    2.71000004
   15.06333351  137.23399353    4.90999985    2.71000004
   15.06416702  152.37800598    4.90999985    2.71000004
   15.06694412  144.99000549    4.90999985    2.71000004
   15.07027817  144.13099670    4.90999985    2.71000004
   15.07333374  136.55200195    4.90999985    2.71000004
   15.07666683  145.02999878    4.90999985    2.71000004
   15.07972240  146.63900757    4.90999985    2.71000004
   15.08305550  137.21200562    4.90999985    2.71000004
   15.08638859  139.72500610    4.90999985    2.71000004
   15.08944416  149.87199402    4.90999985    2.71000004
   15.09277725  145.69999695    4.90999985    2.71000004
   15.09861088  145.69999695    4.90999985    2.71000004
   15.10277843  143.27099609    4.90999985    2.71000004
   15.10611153  137.65899658    4.90999985    2.71000004
   15.10944462  143.55499268    4.90999985    2.71000004
   15.11250019  144.69400024    4.90999985    2.71000004
   15.11583328  153.42199707    4.90999985    2.71000004
   15.11888885  149.24200439    4.90999985    2.71000004
   15.12222195  151.60699463    4.90999985    2.71000004
   15.12555599  151.85899353    4.90999985    2.71000004
   15.12861156  148.14599609    4.90999985    2.71000004
   15.13083363  139.58999634    4.90999985    2.71000004
   15.13222218  136.76400757    4.90999985    2.73000002
   15.13555527  153.71899414    4.90999985    2.71000004
   15.14166641  153.71899414    4.90999985    2.71000004
   15.14583302  148.03700256    4.90999985    2.71000004
   15.14888859  147.23100281    4.90999985    2.71000004
   15.15222168  144.37800598    4.90999985    2.71000004
   15.15527725  140.70700073    4.90999985    2.73000002
   15.15861034  135.75000000    4.90999985    2.73000002
   15.16194439  146.27400208    4.90999985    2.71000004
   15.16416645  152.42999268    4.90999985    2.73000002
   15.16555500  143.29699707    4.90999985    2.71000004
   15.16888905  143.16299438    4.90999985    2.73000002
   15.17194462  141.66799927    4.90999985    2.71000004
   15.17527771  144.67500305    4.90999985    2.71000004
   15.17833328  147.83200073    4.90999985    2.71000004
   15.18444443  147.83200073    4.90999985    2.71000004
   15.18861103  147.38400269    4.90999985    2.73000002
   15.19166660  137.59300232    4.90999985    2.73000002
   15.19499969  148.43899536    4.90999985    2.71000004
   15.19750023  147.44799805    4.90999985    2.71000004
   15.19861126  135.14399719    4.90999985    2.73000002
   15.20194435  138.97399902    4.90999985    2.73000002
   15.20499992  143.90100098    4.90999985    2.73000002
   15.20833302  145.72000122    4.90999985    2.73000002
   15.21166611  147.16700745    4.90999985    2.73000002
   15.21472168  139.28300476    4.90999985    2.71000004
   15.21805477  153.45799255    4.90999985    2.73000002
   15.22138882  144.34199524    4.90999985    2.73000002
   15.22722149  144.34199524    4.90999985    2.73000002
   15.23138809  136.82600403    4.90999985    2.73000002
   15.23472214  140.69400024    4.90999985    2.73000002
   15.23777771  134.94099426    4.90999985    2.71000004
   15.24111176  150.17900085    4.90999985    2.73000002
   15.24444485  135.64300537    4.90999985    2.73000002
   15.24750042  136.41799927    4.90999985    2.73000002
   15.25083351  132.78500366    4.90999985    2.73000002
   15.25388908  136.88999939    4.90999985    2.71000004
   15.25722218  131.50000000    4.90999985    2.73000002
   15.26055527  149.05499268    4.90999985    2.73000002
   15.26361084  133.53799438    4.90999985    2.73000002
   15.26416683  135.24800110    4.90999985    2.73000002
   15.26999950  135.24800110    4.90999985    2.73000002
   15.27416611  146.98399353    4.90999985    2.73000002
   15.27750015  140.97700500    4.90999985    2.71000004
   15.28083324  143.77600098    4.90999985    2.73000002
   15.28388977  137.67199707    4.90999985    2.71000004
   15.28722286  141.00199890    4.90999985    2.73000002
   15.29027843  149.08599854    4.90999985    2.73000002
   15.29361153  142.39100647    4.90999985    2.71000004
   15.29694462  144.41099548    4.90999985    2.71000004
   15.29750061  145.74899292    4.90999985    2.71000004
   15.30055618  136.04699707    4.90999985    2.71000004
   15.30388927  142.69500732    4.90999985    2.73000002
   15.30694485  137.36500549    4.90999985    2.71000004
   15.31305599  137.36500549    4.90999985    2.73000002
   15.31694412  154.73699951    4.90999985    2.73000002
   15.32027817  147.75100708    4.90999985    2.73000002
   15.32361126  130.14300537    4.90999985    2.73000002
   15.32666683  142.60800171    4.90999985    2.73000002
   15.32999992  140.84599304    4.90999985    2.73000002
   15.33083344  140.66900635    4.90999985    2.73000002
   15.33361053  140.86000061    4.90999985    2.73000002
   15.33694458  143.73100281    4.90999985    2.73000002
   15.34000015  144.83299255    4.90999985    2.73000002
   15.34333324  134.81900024    4.90999985    2.73000002
   15.34638882  149.42399597    4.90999985    2.73000002
   15.34972191  131.96699524    4.90999985    2.73000002
   15.35583401  131.96699524    4.90999985    2.73000002
   15.36000061  145.66600037    4.90999985    2.73000002
   15.36305618  150.01499939    4.90999985    2.73000002
   15.36416721  146.46000671    4.90999985    2.73000002
   15.36666679  137.74000549    4.90999985    2.73000002
   15.36999989  134.66099548    4.90999985    2.75000000
   15.37305546  146.91999817    4.90999985    2.73000002
   15.37638855  137.25100708    4.90999985    2.73000002
   15.37972260  153.63099670    4.90999985    2.75000000
   15.38277817  140.54600525    4.90999985    2.73000002
   15.38611126  145.05099487    4.90999985    2.73000002
   15.38916683  151.08000183    4.90999985    2.71000004
   15.39249992  144.72799683    4.90999985    2.73000002
   15.39861107  144.72799683    4.90999985    2.73000002
   15.40277767  140.82600403    4.90999985    2.73000002
   15.40611076  133.40899658    4.90999985    2.73000002
   15.40916634  140.01699829    4.90999985    2.75000000
   15.41249943  129.56500244    4.90999985    2.73000002
   15.41555500  137.57699585    4.90999985    2.75000000
   15.41888905  144.03100586    4.90999985    2.73000002
   15.42222214  133.01300049    4.90999985    2.73000002
   15.42527771  159.17900085    4.90999985    2.73000002
   15.42861176  147.57899475    4.90999985    2.73000002
   15.43083382  141.04600525    4.90999985    2.73000002
   15.43222237  142.94999695    4.90999985    2.73000002
   15.43555546  130.97700500    4.90999985    2.73000002
   15.44138908  130.97700500    4.90999985    2.75000000
   15.44555569  150.86500549    4.90999985    2.75000000
   15.44888878  131.27400208    4.90999985    2.73000002
   15.45222187  138.67500305    4.90999985    2.75000000
   15.45527744  137.33099365    4.90999985    2.73000002
   15.45861053  144.36399841    4.90999985    2.73000002
   15.46194458  154.50999451    4.90999985    2.73000002
   15.46416664  140.44400024    4.90999985    2.73000002
   15.46527767  148.66000366    4.90999985    2.73000002
   15.46861076  140.69099426    4.90999985    2.73000002
   15.47166634  133.29899597    4.90999985    2.75000000
   15.47499943  146.60299683    4.90999985    2.73000002
   15.47833252  143.03500366    4.90999985    2.73000002
   15.48444462  143.03500366    4.90999985    2.71000004
   15.48861122  141.63800049    4.90999985    2.73000002
   15.49166679  132.54200745    4.90999985    2.73000002
   15.49499989  147.78900146    4.90999985    2.73000002
   15.49777794  138.78500366    4.90999985    2.73000002
   15.49861145  134.30099487    4.90999985    2.73000002
   15.50194454  143.15400696    4.90999985    2.73000002
   15.50500011  141.12699890    4.90999985    2.73000002
   15.50833321  144.22099304    4.90999985    2.73000002
   15.51166630  144.21400452    4.90999985    2.73000002
   15.51472187  141.34300232    4.90999985    2.75000000
   15.51805496  136.80599976    4.90999985    2.73000002
   15.61444473   -1.00000000   -1.00000000   -1.00000000
   15.94444466   -1.00000000   -1.00000000   -1.00000000
   16.09861183   -1.00000000   -1.00000000   -1.00000000
   16.11944389   83.10060120    4.90999985    2.75000000
   16.12277794  195.01300049    4.90999985    2.75000000
   16.12611198  183.04600525    4.90999985    2.75000000
   16.12916756  171.61999512    4.90999985    2.75000000
   16.13249969  170.11399841    4.90999985    2.75000000
   16.13555527  160.80099487    4.90999985    2.75000000
   16.13972282  160.80099487    4.90999985    2.75000000
   16.14388847  138.30299377    4.90999985    2.76999998
   16.14722252  156.38000488    4.90999985    2.75000000
   16.15027809  155.18600464    4.90999985    2.75000000
   16.15277672  148.87600708    4.90999985    2.75000000
   16.15388870  141.76400757    4.90999985    2.75000000
   16.15722275  152.54800415    4.90999985    2.75000000
   16.16027832  143.86900330    4.90999985    2.75000000
   16.16361046  163.75000000    4.90999985    2.75000000
   16.16666603  153.47500610    4.90999985    2.75000000
   16.17000008  153.74899292    4.90999985    2.75000000
   16.17333221  144.82800293    4.90999985    2.75000000
   16.17638779  153.74600220    4.90999985    2.75000000
   16.18249893  153.74600220    4.90999985    2.75000000
   16.18666649  146.16200256    4.90999985    2.75000000
   16.18999863  145.08799744    4.90999985    2.75000000
   16.19333267  143.17700195    4.90999985    2.75000000
   16.19638824  137.94599915    4.90999985    2.75000000
   16.19972038  141.05000305    4.90999985    2.75000000
   16.20277786  140.82000732    4.90999985    2.75000000
   16.20611191  146.49699402    4.90999985    2.73000002
   16.20944595  150.36700439    4.90999985    2.75000000
   16.21250153  152.81900024    4.90999985    2.75000000
   16.21583366  145.35400391    4.90999985    2.75000000
   16.21916771  145.74299622    4.90999985    2.75000000
   16.21944427  143.27799988    4.90999985    2.75000000
   16.22555542  143.27799988    4.90999985    2.75000000
   16.22972298  144.05099487    4.90999985    2.75000000
   16.23277855  146.09700012    4.90999985    2.75000000
   16.23611069  146.35200500    4.90999985    2.75000000
   16.23944473  149.79200745    4.90999985    2.75000000
   16.24250031  141.62399292    4.90999985    2.75000000
   16.24583435  154.86399841    4.90999985    2.75000000
   16.24888992  151.22300720    4.90999985    2.75000000
   16.25222206  146.03300476    4.90999985    2.75000000
   16.25277710  152.58500671    4.90999985    2.75000000
   16.25583267  150.42599487    4.90999985    2.75000000
   16.25916672  156.89399719    4.90999985    2.75000000
   16.26222229  156.46499634    4.90999985    2.75000000
   16.26833344  156.46499634    4.90999985    2.75000000
   16.27249908  146.53999329    4.90999985    2.75000000
   16.27555466  153.45700073    4.90999985    2.75000000
   16.27888870  160.02699280    4.90999985    2.75000000
   16.28222275  149.45199585    4.90999985    2.73000002
   16.28527641  145.66900635    4.90999985    2.75000000
   16.28610992  139.53300476    4.90999985    2.75000000
   16.28888893  149.31599426    4.90999985    2.75000000
   16.29222107  138.20599365    4.90999985    2.76999998
   16.29527664  153.16700745    4.90999985    2.75000000
   16.29861069  157.02999878    4.90999985    2.76999998
   16.30194283  153.57099915    4.90999985    2.75000000
   16.30499840  153.71499634    4.90999985    2.75000000
   16.31110954  153.71499634    4.90999985    2.76999998
   16.31527710  141.28500366    4.90999985    2.75000000
   16.31861115  152.25799561    4.90999985    2.75000000
   16.31944466  154.96400452    4.90999985    2.75000000
   16.32222366  141.99200439    4.90999985    2.73000002
   16.32555580  149.97500610    4.90999985    2.75000000
   16.32861137  147.18899536    4.90999985    2.75000000
   16.33194542  143.11500549    4.90999985    2.75000000
   16.33527756  145.85400391    4.90999985    2.75000000
   16.33833313  131.62699890    4.90999985    2.75000000
   16.34166718  143.37600708    4.90999985    2.75000000
   16.34472275  144.06199646    4.90999985    2.75000000
   16.34805679  126.88700104    4.90999985    2.75000000
   16.35388947  126.88700104    4.90999985    2.75000000
   16.35805511  146.07699585    4.90999985    2.75000000
   16.36138916  153.69500732    4.90999985    2.75000000
   16.36472321  140.23800659    4.90999985    2.75000000
   16.36777878  134.13299561    4.90999985    2.75000000
   16.37111092  143.43499756    4.90999985    2.75000000
   16.37416649  145.38800049    4.90999985    2.75000000
   16.37750053  150.64599609    4.90999985    2.75000000
   16.38083267  143.68299866    4.90999985    2.75000000
   16.38388824  138.32800293    4.90999985    2.75000000
   16.38611031  142.24800110    4.90999985    2.75000000
   16.38750076  138.80299377    4.90999985    2.75000000
   16.39083290  142.15199280    4.90999985    2.75000000
   16.39694405  142.15199280    4.90999985    2.75000000
   16.40111160  129.06799316    4.90999985    2.75000000
   16.40416718  134.25900269    4.90999985    2.75000000
   16.40749931  137.43200684    4.90999985    2.75000000
   16.41083336  138.83099365    4.90999985    2.75000000
   16.41388893  138.04400635    4.90999985    2.75000000
   16.41722107  137.73899841    4.90999985    2.75000000
   16.41972160  139.47500610    4.90999985    2.75000000
   16.42083359  140.10000610    4.90999985    2.75000000
   16.42416573  145.94099426    4.90999985    2.75000000
   16.42722130  134.05200195    4.90999985    2.75000000
   16.43055534  137.79600525    4.90999985    2.75000000
   16.43388748  124.69200134    4.90999985    2.75000000
   16.43972206  124.69200134    4.90999985    2.75000000
   16.44388771  136.33799744    4.90999985    2.75000000
   16.44722176  147.76600647    4.90999985    2.75000000
   16.45027924  125.16000366    4.90999985    2.75000000
   16.45305634  125.25599670    4.90999985    2.75000000
   16.45388985  123.62400055    4.90999985    2.75000000
   16.45722389  135.94799805    4.90999985    2.75000000
   16.46027946  133.97300720    4.90999985    2.75000000
   16.46361160  143.55499268    4.90999985    2.75000000
   16.46694565  129.98800659    4.90999985    2.75000000
   16.47000122  142.08599854    4.90999985    2.75000000
   16.47333336  140.13400269    4.90999985    2.75000000
   16.47666740  129.05400085    4.90999985    2.75000000
   16.48250008  129.05400085    4.90999985    2.75000000
   16.48666763  132.38299561    4.90999985    2.75000000
   16.48999977  138.63900757    4.90999985    2.75000000
   16.49305534  134.66000366    4.90999985    2.75000000
   16.49638939  132.12199402    4.90999985    2.75000000
   16.49972153  133.11500549    4.90999985    2.75000000
   16.50277710  130.17199707    4.90999985    2.75000000
   16.50611115  127.97699738    4.90999985    2.75000000
   16.50944519  130.14700317    4.90999985    2.75000000
   16.51250076  126.16699982    4.90999985    2.75000000
   16.51583290  135.33900452    4.90999985    2.75000000
   16.51888847  133.99200439    4.90999985    2.75000000
   16.51972198  130.14700317    4.90999985    2.75000000
   16.52527809  130.14700317    4.90999985    2.75000000
   16.52944374  140.42999268    4.90999985    2.76999998
   16.53277779  139.17599487    4.90999985    2.75000000
   16.53610992  129.47300720    4.90999985    2.75000000
   16.53916550  130.51899719    4.90999985    2.75000000
   16.54249954  127.63500214    4.90999985    2.75000000
   16.54555511  129.63600159    4.90999985    2.75000000
   16.54888916  135.95500183    4.90999985    2.75000000
   16.55222130  127.53299713    4.90999985    2.75000000
   16.55305481  129.09599304    4.90999985    2.75000000
   16.55555534  132.89799500    4.90999985    2.75000000
   16.55888748  129.09800720    4.90999985    2.75000000
   16.56222153  129.20899963    4.90999985    2.75000000
   16.56833458  129.20899963    4.90999985    2.75000000
   16.57250023  128.30999756    4.90999985    2.75000000
   16.57555580  140.66999817    4.90999985    2.75000000
   16.57888985  126.44599915    4.90999985    2.75000000
   16.58222389  127.25099945    4.90999985    2.75000000
   16.58527756  129.30900574    4.90999985    2.75000000
   16.58638954  133.65199280    4.90999985    2.75000000
   16.58889008  128.87699890    4.90999985    2.75000000
   16.59222221  134.48899841    4.90999985    2.75000000
   16.59555626  134.16999817    4.90999985    2.75000000
   16.59861183  128.03300476    4.90999985    2.75000000
   16.60194397  128.44299316    4.90999985    2.75000000
   16.60499954  129.24699402    4.90999985    2.75000000
   16.61111069  129.24699402    4.90999985    2.75000000
   16.61527824  128.00199890    4.90999985    2.75000000
   16.61861038  128.83299255    4.90999985    2.75000000
   16.61972237  130.66799927    4.90999985    2.75000000
   16.62194443  131.25999451    4.90999985    2.75000000
   16.62527847  133.19799805    4.90999985    2.75000000
   16.62861061  129.62800598    4.90999985    2.75000000
   16.63166618  131.74899292    4.90999985    2.75000000
   16.63500023  130.42799377    4.90999985    2.75000000
   16.63833237  129.61900330    4.90999985    2.75000000
   16.64138794  130.08399963    4.90999985    2.75000000
   16.64472198  131.17100525    4.90999985    2.75000000
   16.64805603  132.26199341    4.90999985    2.75000000
   16.65388870  132.26199341    4.90999985    2.75000000
   16.65805435  130.30900574    4.90999985    2.75000000
   16.66138840  124.50599670    4.90999985    2.75000000
   16.66444397  130.00100708    4.90999985    2.75000000
   16.66777802  127.66799927    4.90999985    2.75000000
   16.67111015  128.34199524    4.90999985    2.75000000
   16.67416573  127.36900330    4.90999985    2.75000000
   16.67749977  131.98500061    4.90999985    2.75000000
   16.68083191  122.67700195    4.90999985    2.75000000
   16.68388748  126.85399628    4.90999985    2.75000000
   16.68638802  131.52000427    4.90999985    2.75000000
   16.68750000  129.83700562    4.90999985    2.75000000
   16.69083214  126.44599915    4.90999985    2.75000000
   16.69666672  126.44599915    4.90999985    2.75000000
   16.70083427  128.89700317    4.90999985    2.75000000
   16.70416832  130.79400635    4.90999985    2.75000000
   16.70750046  128.27099609    4.90999985    2.75000000
   16.71055603  132.93099976    4.90999985    2.75000000
   16.71389008  132.89900208    4.90999985    2.76999998
   16.71694565  125.71499634    4.90999985    2.75000000
   16.71972275  133.89700317    4.90999985    2.75000000
   16.72055626  130.41400146    4.90999985    2.75000000
   16.72389030  133.61399841    4.90999985    2.75000000
   16.72722244  131.57699585    4.90999985    2.75000000
   16.73027802  134.68600464    4.90999985    2.75000000
   16.73361206  128.33700562    4.90999985    2.75000000
   16.73972321  128.33700562    4.90999985    2.75000000
   16.74388885  129.21299744    4.90999985    2.75000000
   16.74694443  131.97999573    4.90999985    2.75000000
   16.75027847  128.46299744    4.90999985    2.75000000
   16.75305557  128.64500427    4.90999985    2.75000000
   16.75361061  128.90899658    4.90999985    2.75000000
   16.75694466  134.25999451    4.90999985    2.75000000
   16.76027870  132.02499390    4.90999985    2.75000000
   16.76333427  131.98500061    4.90999985    2.75000000
   16.76666641  132.89100647    4.90999985    2.75000000
   16.76972198  133.28100586    4.90999985    2.75000000
   16.77305603  131.44799805    4.90999985    2.75000000
   16.77638817  133.23699951    4.90999985    2.75000000
   16.78249931  133.23699951    4.90999985    2.75000000
   16.78666687  130.66499329    4.90999985    2.75000000
   16.78999901  132.80000305    4.90999985    2.75000000
   16.79305458  131.97000122    4.90999985    2.75000000
   16.79638863  130.52000427    4.90999985    2.75000000
   16.79972076  131.38499451    4.90999985    2.75000000
   16.80277634  131.08399963    4.90999985    2.75000000
   16.80611038  130.19200134    4.90999985    2.75000000
   16.80944443  127.50599670    4.90999985    2.76999998
   16.81250000  128.39399719    4.90999985    2.75000000
   16.81583214  132.44900513    4.90999985    2.75000000
   16.81888962  128.88400269    4.90999985    2.75000000
   16.81972313  128.17700195    4.90999985    2.75000000
   16.82527924  128.17700195    4.90999985    2.75000000
   16.82944489  133.10899353    4.90999985    2.75000000
   16.83277893  132.11199951    4.90999985    2.75000000
   16.83583450  129.54499817    4.90999985    2.75000000
   16.83916664  130.52200317    4.90999985    2.75000000
   16.84250069  128.63800049    4.90999985    2.75000000
   16.84555626  128.44000244    4.90999985    2.75000000
   16.84889030  128.14399719    4.90999985    2.75000000
   16.85222244  132.49000549    4.90999985    2.75000000
   16.85305595  129.08999634    4.90999985    2.75000000
   16.85555649  129.15899658    4.90999985    2.75000000
   16.85888863  133.99899292    4.90999985    2.75000000
   16.86222267  128.82699585    4.90999985    2.75000000
   16.86833382  128.82699585    4.90999985    2.75000000
   16.87222290  132.41900635    4.90999985    2.75000000
   16.87555504  132.83000183    4.90999985    2.75000000
   16.87888908  134.43400574    4.90999985    2.75000000
   16.88194466  132.25599670    4.90999985    2.75000000
   16.88527679  133.38200378    4.90999985    2.75000000
   16.88638878  133.57099915    4.90999985    2.75000000
   16.88861084  134.02600098    4.90999985    2.75000000
   16.89194489  132.29100037    4.90999985    2.75000000
   16.89527702  133.88299561    4.90999985    2.73000002
   16.89833260  132.26300049    4.90999985    2.75000000
   16.90166664  133.47500610    4.90999985    2.75000000
   16.90499878  138.24499512    4.90999985    2.75000000
   16.91110992  138.24499512    4.90999985    2.73000002
   16.91527748  135.57299805    4.90999985    2.75000000
   16.91833305  139.52000427    4.90999985    2.75000000
   16.91972160  136.83299255    4.90999985    2.75000000
   16.92194366  132.29600525    4.90999985    2.75000000
   16.92527771  134.16600037    4.90999985    2.75000000
   16.92860985  134.49600220    4.90999985    2.75000000
   16.93166542  130.61199951    4.90999985    2.75000000
   16.93499947  131.82299805    4.90999985    2.75000000
   16.93805504  136.75599670    4.90999985    2.75000000
   16.94138718  137.45500183    4.90999985    2.75000000
   16.94472122  133.97099304    4.90999985    2.75000000
   16.94777679  132.75599670    4.90999985    2.75000000
   16.95388985  132.75599670    4.90999985    2.75000000
   16.95805550  130.72000122    4.90999985    2.75000000
   16.96138954  133.87600708    4.90999985    2.75000000
   16.96444511  133.64799500    4.90999985    2.73000002
   16.96777916  132.31700134    4.90999985    2.75000000
   16.97111130  133.02900696    4.90999985    2.75000000
   16.97416687  130.58999634    4.90999985    2.75000000
   16.97750092  133.41900635    4.90999985    2.75000000
   16.98055649  135.65199280    4.90999985    2.75000000
   16.98388863  143.38299561    4.90999985    2.75000000
   16.98638916  136.30900574    4.90999985    2.75000000
   16.98750114  133.51699829    4.90999985    2.75000000
   16.99083328  133.76600647    4.90999985    2.75000000
   16.99666786  133.76600647    4.90999985    2.73000002
   17.00083351  136.37500000    4.90999985    2.75000000
   17.00416756  133.45399475    4.90999985    2.75000000
   17.00722313  132.13000488    4.90999985    2.75000000
   17.01055527  132.24600220    4.90999985    2.73000002
   17.01388931  131.89700317    4.90999985    2.73000002
   17.01694489  134.73699951    4.90999985    2.75000000
   17.01972198  133.08099365    4.90999985    2.75000000
   17.02055550  134.16700745    4.90999985    2.75000000
   17.02388954  134.55099487    4.90999985    2.75000000
   17.02722168  135.91400146    4.90999985    2.75000000
   17.03027725  137.37399292    4.90999985    2.75000000
   17.03361130  133.52999878    4.90999985    2.75000000
   17.03944397  133.52999878    4.90999985    2.75000000
   17.04361153  131.12899780    4.90999985    2.75000000
   17.04694366  137.45700073    4.90999985    2.75000000
   17.05027771  131.24600220    4.90999985    2.75000000
   17.05305481  131.80799866    4.90999985    2.75000000
   17.05360985  128.00500488    4.90999985    2.75000000
   17.05694389  132.74600220    4.90999985    2.75000000
   17.06027794  130.15299988    4.90999985    2.75000000
   17.06333351  131.67100525    4.90999985    2.75000000
   17.06666756  134.27999878    4.90999985    2.75000000
   17.07000160  134.30099487    4.90999985    2.75000000
   17.07305717  130.56900024    4.90999985    2.75000000
   17.07638931  129.85099792    4.90999985    2.75000000
   17.08250046  129.85099792    4.90999985    2.75000000
   17.08666801  133.33299255    4.90999985    2.75000000
   17.08972359  129.93299866    4.90999985    2.75000000
   17.09305573  131.88000488    4.90999985    2.75000000
   17.09638977  126.49900055    4.90999985    2.75000000
   17.09944534  133.14100647    4.90999985    2.76999998
   17.10277748  129.40100098    4.90999985    2.75000000
   17.10583305  132.90199280    4.90999985    2.75000000
   17.10916710  130.50999451    4.90999985    2.75000000
   17.11250114  129.31500244    4.90999985    2.75000000
   17.11555672  128.72200012    4.90999985    2.76999998
   17.11888885  132.22300720    4.90999985    2.75000000
   17.11972237  131.88000488    4.90999985    2.75000000
   17.15305519  151.58599854    4.90999985    2.75000000
   17.15416718  156.20399475    4.90999985    2.75000000
   17.15722275  142.32699585    4.90999985    2.75000000
   17.16055489  144.89199829    4.90999985    2.75000000
   17.16388893  134.89500427    4.90999985    2.75000000
   17.16694450  143.83299255    4.90999985    2.75000000
   17.17111015  143.83299255    4.90999985    2.75000000
   17.17527771  134.81100464    4.90999985    2.75000000
   17.17833328  138.49000549    4.90999985    2.75000000
   17.18166542  136.49299622    4.90999985    2.75000000
   17.18499947  146.77499390    4.90999985    2.73000002
   17.18638802  145.28399658    4.90999985    2.75000000
   17.18861008  144.08599854    4.90999985    2.75000000
   17.19166565  146.89799500    4.90999985    2.75000000
   17.19499969  134.63600159    4.90999985    2.76999998
   17.19833183  141.96899414    4.90999985    2.75000000
   17.20138931  146.56799316    4.90999985    2.76999998
   17.20472336  138.26300049    4.90999985    2.76999998
   17.20805550  144.98399353    4.90999985    2.75000000
   17.21389008  144.98399353    4.90999985    2.75000000
   17.21805573  137.87600708    4.90999985    2.75000000
   17.21972275  138.76400757    4.90999985    2.75000000
   17.22166634  139.91700745    4.90999985    2.75000000
   17.22472191  138.19299316    4.90999985    2.75000000
   17.22805595  141.04200745    4.90999985    2.75000000
   17.23139000  147.57299805    4.90999985    2.75000000
   17.23444557  133.25100708    4.90999985    2.75000000
   17.23777771  136.27099609    4.90999985    2.75000000
   17.24111176  139.97900391    4.90999985    2.75000000
   17.24416733  143.31399536    4.90999985    2.75000000
   17.24749947  143.09199524    4.90999985    2.75000000
   17.25055504   86.36799622    4.90999985    2.75000000
   17.25305557  117.11100006    4.90999985    2.75000000
   17.25722313  117.11100006    4.90999985    2.75000000
   17.26138878  143.38099670    4.90999985    2.75000000
   17.26444435  148.64199829    4.90999985    2.75000000
   17.26777840  151.66099548    4.90999985    2.75000000
   17.27111053  137.32299805    4.90999985    2.75000000
   17.27416611  134.39500427    4.90999985    2.75000000
   17.27750015  144.42199707    4.90999985    2.75000000
   17.28083229  146.02000427    4.90999985    2.75000000
   17.28388786  138.64700317    4.90999985    2.75000000
   17.28638840  140.39599609    4.90999985    2.75000000
   17.28750038  143.75199890    4.90999985    2.75000000
   17.29055595  135.78500366    4.90999985    2.75000000
   17.29388809  135.10099792    4.90999985    2.75000000
   17.29999924  135.10099792    4.90999985    2.75000000
   17.30416679  140.57000732    4.90999985    2.75000000
   17.30749893  134.95199585    4.90999985    2.75000000
   17.31055450  140.56500244    4.90999985    2.73000002
   17.31388855  133.33700562    4.90999985    2.75000000
   17.31722260  135.93499756    4.90999985    2.75000000
   17.31972313  139.47099304    4.90999985    2.75000000
   17.32083511  140.51699829    4.90999985    2.75000000
   17.32389069  142.41900635    4.90999985    2.75000000
   17.32722282  140.80999756    4.90999985    2.75000000
   17.33055687  146.96600342    4.90999985    2.75000000
   17.33361244  145.17300415    4.90999985    2.75000000
   17.33694458  150.70500183    4.90999985    2.75000000
   17.34277916  150.70500183    4.90999985    2.75000000
   17.34694481  147.14700317    4.90999985    2.75000000
   17.35027885  146.98399353    4.90999985    2.75000000
   17.35305595  147.99099731    4.90999985    2.75000000
   17.35388947  150.37300110    4.90999985    2.75000000
   17.35694504  135.22399902    4.90999985    2.75000000
   17.36027908  146.53799438    4.90999985    2.75000000
   17.36361122  140.63800049    4.90999985    2.75000000
   17.36666679  137.25500488    4.90999985    2.75000000
   17.37000084  137.73899841    4.90999985    2.75000000
   17.37333298  140.51199341    4.90999985    2.75000000
   17.37638855  146.65199280    4.90999985    2.75000000
   17.37972260  147.04499817    4.90999985    2.75000000
   17.38583374  147.04499817    4.90999985    2.75000000
   17.38999939  135.74600220    4.90999985    2.75000000
   17.39305496  141.30999756    4.90999985    2.75000000
   17.39638901  142.35499573    4.90999985    2.75000000
   17.39944458  147.36799622    4.90999985    2.75000000
   17.40277672  142.84899902    4.90999985    2.75000000
   17.40611076  138.40699768    4.90999985    2.75000000
   17.40916634  141.80900574    4.90999985    2.75000000
   17.41250038  134.41900635    4.90999985    2.75000000
   17.41583252  142.97200012    4.90999985    2.75000000
   17.41888809  137.33900452    4.90999985    2.75000000
   17.42083359  146.94400024    4.90999985    2.75000000
   17.42249870  149.27000427    4.90999985    2.75000000
   17.42860985  149.27000427    4.90999985    2.75000000
   17.43277740  143.78199768    4.90999985    2.75000000
   17.43583298  150.18499756    4.90999985    2.75000000
   17.43916512  138.72300720    4.90999985    2.75000000
   17.44249916  143.68899536    4.90999985    2.75000000
   17.44555473  135.79200745    4.90999985    2.75000000
   17.44888878  145.00300598    4.90999985    2.75000000
   17.45222282  140.82000732    4.90999985    2.75000000
   17.45416832  139.84399414    4.90999985    2.75000000
   17.45555687  149.29499817    4.90999985    2.75000000
   17.45888901  141.20899963    4.90999985    2.75000000
   17.46194458  142.52799988    4.90999985    2.75000000
   17.46527863  135.85800171    4.90999985    2.75000000
   17.47138977  135.85800171    4.90999985    2.75000000
   17.47555542  152.07200623    4.90999985    2.75000000
   17.47888947  143.31100464    4.90999985    2.75000000
   17.48194504  143.06599426    4.90999985    2.75000000
   17.48527718  137.20899963    4.90999985    2.75000000
   17.48750114  151.06100464    4.90999985    2.75000000
   17.48888969  144.79499817    4.90999985    2.75000000
   17.49222183  137.41499329    4.90999985    2.75000000
   17.49527740  151.61999512    4.90999985    2.75000000
   17.49861145  146.26600647    4.90999985    2.75000000
   17.50194359  147.22900391    4.90999985    2.75000000
   17.50499916  149.00500488    4.90999985    2.75000000
   17.50833321  138.40600586    4.90999985    2.75000000
   17.51416588  138.40600586    4.90999985    2.75000000
   17.51833344  143.12399292    4.90999985    2.75000000
   17.52083397  139.97999573    4.90999985    2.75000000
   17.52194405  143.00500488    4.90999985    2.75000000
   17.52527809  143.22200012    4.90999985    2.75000000
   17.52833366  142.73300171    4.90999985    2.75000000
   17.53166580  137.63499451    4.90999985    2.75000000
   17.53499985  142.10499573    4.90999985    2.75000000
   17.53805542  148.25799561    4.90999985    2.75000000
   17.54138756  142.58500671    4.90999985    2.75000000
   17.54444313  141.43299866    4.90999985    2.75000000
   17.54777718  137.49299622    4.90999985    2.75000000
   17.55111122  139.88800049    4.90999985    2.75000000
   17.55722237  139.88800049    4.90999985    2.75000000
   17.56110954  139.83999634    4.90999985    2.75000000
   17.56444359  126.52100372    4.90999985    2.75000000
   17.56777954  138.38699341    4.90999985    2.75000000
   17.57083511  138.89599609    4.90999985    2.75000000
   17.57416725  142.44799805    4.90999985    2.75000000
   17.57750130  132.22000122    4.90999985    2.75000000
   17.58083344  133.60000610    4.90999985    2.75000000
   17.58388901  145.40100098    4.90999985    2.75000000
   17.58722305  133.24499512    4.90999985    2.75000000
   17.58805656  145.57800293    4.90999985    2.75000000
   17.59055710  142.89599609    4.90999985    2.75000000
   17.59388924  147.46299744    4.90999985    2.75000000
   17.60000038  147.46299744    4.90999985    2.75000000
   17.60416794  135.68099976    4.90999985    2.73000002
   17.60722351  137.97500610    4.90999985    2.75000000
   17.61055565  147.20599365    4.90999985    2.75000000
   17.61388969  157.74499512    4.90999985    2.75000000
   17.61694527  136.64700317    4.90999985    2.75000000
   17.62027740  136.89300537    4.90999985    2.73000002
   17.62138939  137.87399292    4.90999985    2.75000000
   17.62361145  143.73800659    4.90999985    2.75000000
   17.62694550  145.65600586    4.90999985    2.75000000
   17.63027763  146.44200134    4.90999985    2.75000000
   17.63333321  144.86799622    4.90999985    2.75000000
   17.63666725  142.07400513    4.90999985    2.73000002
   17.64277840  142.07400513    4.90999985    2.75000000
   17.64694405  133.07800293    4.90999985    2.75000000
   17.65027809  145.63000488    4.90999985    2.75000000
   17.65333366  136.73899841    4.90999985    2.75000000
   17.65499878  143.83200073    4.90999985    2.73000002
   17.65694427  134.33299255    4.90999985    2.75000000
   17.66027832  144.54800415    4.90999985    2.75000000
   17.66361046  140.72900391    4.90999985    2.75000000
   17.66666603  135.78199768    4.90999985    2.75000000
   17.67000008  144.65899658    4.90999985    2.73000002
   17.67333221  139.44099426    4.90999985    2.75000000
   17.67638779  155.01600647    4.90999985    2.75000000
   17.67972183  149.77699280    4.90999985    2.75000000
   17.68555450  149.77699280    4.90999985    2.75000000
   17.68972206  145.94900513    4.90999985    2.73000002
   17.69305420  149.69500732    4.90999985    2.73000002
   17.69610977  143.33200073    4.90999985    2.75000000
   17.69944382  138.92500305    4.90999985    2.73000002
   17.70277786  139.63600159    4.90999985    2.73000002
   17.70583344  145.52799988    4.90999985    2.75000000
   17.70916748  134.52499390    4.90999985    2.73000002
   17.71250153  141.75300598    4.90999985    2.75000000
   17.71555710  156.53199768    4.90999985    2.75000000
   17.71888924  141.33700562    4.90999985    2.75000000
   17.72166634  143.82099915    4.90999985    2.75000000
   17.72222328  144.44900513    4.90999985    2.75000000
   17.72861099  144.44900513    4.90999985    2.73000002
   17.73250008  134.78599548    4.90999985    2.73000002
   17.73583412  150.72399902    4.90999985    2.73000002
   17.73916626  136.78999329    4.90999985    2.75000000
   17.74222183  134.67300415    4.90999985    2.75000000
   17.74555588  144.99099731    4.90999985    2.75000000
   17.74888992  141.01600647    4.90999985    2.75000000
   17.75194359  144.53500366    4.90999985    2.75000000
   17.75499916  142.63600159    4.90999985    2.75000000
   17.75555611  135.19000244    4.90999985    2.75000000
   17.75888824  146.85800171    4.90999985    2.75000000
   17.76222229  140.15699768    4.90999985    2.75000000
   17.76527786  140.35200500    4.90999985    2.75000000
   17.77138901  140.35200500    4.90999985    2.75000000
   17.77555466  138.90400696    4.90999985    2.75000000
   17.77861023  142.91099548    4.90999985    2.73000002
   17.78194427  147.85600281    4.90999985    2.75000000
   17.78527641  138.20599365    4.90999985    2.75000000
   17.78833199  149.16299438    4.90999985    2.73000002
   17.78861046  138.94200134    4.90999985    2.75000000
   17.79194450  140.48599243    4.90999985    2.73000002
   17.79527664  149.41400146    4.90999985    2.75000000
   17.79833221  134.63400269    4.90999985    2.75000000
   17.80166626  143.58700562    4.90999985    2.75000000
   17.80472183  152.57000732    4.90999985    2.73000002
   17.80805397  141.74099731    4.90999985    2.75000000
   17.81416512  141.74099731    4.90999985    2.75000000
   17.81833458  133.52699280    4.90999985    2.75000000
   17.82166672  139.31700134    4.90999985    2.73000002
   17.82194519  145.13800049    4.90999985    2.73000002
   17.82527924  144.20599365    4.90999985    2.73000002
   17.82861137  143.30499268    4.90999985    2.75000000
   17.83194542  144.88200378    4.90999985    2.73000002
   17.83500099  143.60400391    4.90999985    2.73000002
   17.83833313  145.34599304    4.90999985    2.73000002
   17.84138870  144.37899780    4.90999985    2.73000002
   17.84472275  145.79299927    4.90999985    2.73000002
   17.84805679  138.07200623    4.90999985    2.75000000
   17.85111237  137.39999390    4.90999985    2.75000000
   17.85694504  137.39999390    4.90999985    2.73000002
   17.86111069  138.46200562    4.90999985    2.73000002
   17.86444473  138.47200012    4.90999985    2.75000000
   17.86750031  134.63999939    4.90999985    2.73000002
   17.87083435  142.25999451    4.90999985    2.73000002
   17.87416649  140.49400330    4.90999985    2.75000000
   17.87722206  141.48599243    4.90999985    2.73000002
   17.88055611  137.78900146    4.90999985    2.75000000
   17.88388824  145.08599854    4.90999985    2.73000002
   17.88694382  149.89199829    4.90999985    2.75000000
   17.88833237  145.63900757    4.90999985    2.73000002
   17.89055634  150.12699890    4.90999985    2.73000002
   17.89388847  147.05200195    4.90999985    2.73000002
   17.89999962  147.05200195    4.90999985    2.73000002
   17.90388870  154.99000549    4.90999985    2.73000002
   17.90722275  142.62600708    4.90999985    2.73000002
   17.91055489  136.38900757    4.90999985    2.73000002
   17.91361046  143.39300537    4.90999985    2.75000000
   17.91694450  149.54299927    4.90999985    2.75000000
   17.92027664  144.16000366    4.90999985    2.75000000
   17.92166519  147.38699341    4.90999985    2.75000000
   17.92361069  136.05000305    4.90999985    2.75000000
   17.92694473  144.43800354    4.90999985    2.73000002
   17.93027687  141.51100159    4.90999985    2.75000000
   17.93333244  147.42500305    4.90999985    2.73000002
   17.93666649  129.28900146    4.90999985    2.73000002
   17.94277763  129.28900146    4.90999985    2.75000000
   17.94694328  138.86500549    4.90999985    2.73000002
   17.95000076  136.53500366    4.90999985    2.73000002
   17.95333481  133.88900757    4.90999985    2.75000000
   17.95527840  140.08099365    4.90999985    2.75000000
   17.95694542  144.54100037    4.90999985    2.75000000
   17.96027946  143.49699402    4.90999985    2.73000002
   17.96333504  139.93699646    4.90999985    2.75000000
   17.96666718  149.63999939    4.90999985    2.73000002
   17.97000122  144.65899658    4.90999985    2.75000000
   17.97305679  142.83799744    4.90999985    2.73000002
   17.97638893  145.72999573    4.90999985    2.73000002
   17.97972298  140.23100281    4.90999985    2.73000002
   17.98555565  140.23100281    4.90999985    2.73000002
   17.98972321  142.87399292    4.90999985    2.75000000
   17.99305534  141.11199951    4.90999985    2.73000002
   17.99611092  143.49099731    4.90999985    2.73000002
   17.99944496  140.68099976    4.90999985    2.73000002
   18.00277710  152.72099304    4.90999985    2.73000002
   18.00583267  134.45399475    4.90999985    2.73000002
   18.00916672  144.43699646    4.90999985    2.73000002
   18.01222229  147.34100342    4.90999985    2.73000002
   18.01555634  143.05400085    4.90999985    2.73000002
   18.01888847  149.08200073    4.90999985    2.75000000
   18.02194405  143.07299805    4.90999985    2.75000000
   18.02222252  133.48699951    4.90999985    2.73000002
   18.02833366  133.48699951    4.90999985    2.73000002
   18.03249931  151.29299927    4.90999985    2.73000002
   18.03583336  148.08500671    4.90999985    2.73000002
   18.03888893  126.32199860    4.90999985    2.73000002
   18.04222107  144.01699829    4.90999985    2.73000002
   18.04555511  142.82699585    4.90999985    2.73000002
   18.04861069  140.06100464    4.90999985    2.73000002
   18.05194283  144.42500305    4.90999985    2.73000002
   18.05527687  143.84599304    4.90999985    2.73000002
   18.05555534  152.28700256    4.90999985    2.73000002
   18.05888748  141.76400757    4.90999985    2.75000000
   18.06194305  152.10800171    4.90999985    2.73000002
   18.06527710  148.26100159    4.90999985    2.73000002
   18.07139015  148.26100159    4.90999985    2.73000002
   18.07527924  135.43299866    4.90999985    2.73000002
   18.07861137  145.64900208    4.90999985    2.75000000
   18.08194542  135.55900574    4.90999985    2.73000002
   18.08500099  150.93400574    4.90999985    2.73000002
   18.08833313  139.97900391    4.90999985    2.75000000
   18.08889008  128.25500488    4.90999985    2.75000000
   18.09194565  142.58599854    4.90999985    2.73000002
   18.09527779  134.81700134    4.90999985    2.73000002
   18.09861183  142.85899353    4.90999985    2.75000000
   18.10166740  141.67900085    4.90999985    2.73000002
   18.10499954  135.46400452    4.90999985    2.73000002
   18.10805511  141.16400146    4.90999985    2.71000004
   18.11416626  141.16400146    4.90999985    2.73000002
   18.11833382  137.44799805    4.90999985    2.73000002
   18.12138939  139.17300415    4.90999985    2.73000002
   18.12222290  141.84800720    4.90999985    2.73000002
   18.12500000  145.10200500    4.90999985    2.73000002
   18.12833405  144.33999634    4.90999985    2.75000000
   18.13166618  138.86700439    4.90999985    2.75000000
   18.13472176  144.26899719    4.90999985    2.75000000
   18.13805580  134.17300415    4.90999985    2.75000000
   18.14111137  144.75599670    4.90999985    2.73000002
   18.14444351  140.30400085    4.90999985    2.75000000
   18.14777756  140.33099365    4.90999985    2.73000002
   18.15083313  138.86199951    4.90999985    2.73000002
   18.17166519  138.86199951    4.90999985    2.73000002
   18.17583275  135.83700562    4.90999985    2.73000002
   18.17888832  135.58700562    4.90999985    2.73000002
   18.18222237  134.95599365    4.90999985    2.73000002
   18.18527603  139.32899475    4.90999985    2.73000002
   18.18861008  141.32000732    4.90999985    2.73000002
   18.19194412  147.30400085    4.90999985    2.73000002
   18.19499969  140.55999756    4.90999985    2.73000002
   18.19833183  142.82299805    4.90999985    2.73000002
   18.20166779  138.73100281    4.90999985    2.73000002
   18.20250130  141.23899841    4.90999985    2.73000002
   18.20499992  139.37199402    4.90999985    2.73000002
   18.20833397  135.59899902    4.90999985    2.73000002
   18.21444511  135.59899902    4.90999985    2.73000002
   18.21833420  139.47599792    4.90999985    2.71000004
   18.22166634  145.44000244    4.90999985    2.73000002
   18.22500038  136.21899414    4.90999985    2.71000004
   18.22805595  137.02400208    4.90999985    2.73000002
   18.23139000  138.88000488    4.90999985    2.73000002
   18.23472214  142.69299316    4.90999985    2.75000000
   18.23583412  138.24699402    4.90999985    2.73000002
   18.23805618  140.21200562    4.90999985    2.71000004
   18.24138832  145.10299683    4.90999985    2.73000002
   18.24472237  138.55900574    4.90999985    2.73000002
   18.24777794  133.41400146    4.90999985    2.73000002
   18.25111198  144.55700684    4.90999985    2.73000002
   18.25722313  144.55700684    4.90999985    2.73000002
   18.26138878  141.07099915    4.90999985    2.73000002
   18.26444435  139.66299438    4.90999985    2.73000002
   18.26777840  149.68699646    4.90999985    2.73000002
   18.26916695  140.33700562    4.90999985    2.73000002
   18.27138901  140.43899536    4.90999985    2.71000004
   18.27444458  135.41700745    4.90999985    2.73000002
   18.27777672  137.70599365    4.90999985    2.71000004
   18.28111076  139.25300598    4.90999985    2.71000004
   18.28416634  133.03900146    4.90999985    2.73000002
   18.28750038  134.17799377    4.90999985    2.73000002
   18.29083252  139.41700745    4.90999985    2.73000002
   18.29388809  138.97500610    4.90999985    2.73000002
   18.29999924  138.97500610    4.90999985    2.73000002
   18.30416679  140.96400452    4.90999985    2.73000002
   18.30722237  148.75599670    4.90999985    2.73000002
   18.31055450  139.06799316    4.90999985    2.73000002
   18.31388855  138.00300598    4.90999985    2.71000004
   18.31694603  146.02799988    4.90999985    2.71000004
   18.32027817  142.83299255    4.90999985    2.73000002
   18.32361221  139.10000610    4.90999985    2.71000004
   18.32666779  137.51300049    4.90999985    2.71000004
   18.33000183  140.74499512    4.90999985    2.73000002
   18.33305550  139.65800476    4.90999985    2.73000002
   18.33638954  135.42799377    4.90999985    2.71000004
   18.33805656  134.19900513    4.90999985    2.73000002
   18.34277916  134.19900513    4.90999985    2.73000002
   18.34694481  132.85800171    4.90999985    2.73000002
   18.35027885  139.23300171    4.90999985    2.73000002
   18.35333443  139.87300110    4.90999985    2.71000004
   18.35666656  139.49099731    4.90999985    2.71000004
   18.36000061  145.38900757    4.90999985    2.73000002
   18.36305618  145.17300415    4.90999985    2.73000002
   18.36638832  142.05999756    4.90999985    2.73000002
   18.36944389  146.08599854    4.90999985    2.71000004
   18.37000084  137.52699280    4.90999985    2.71000004
   18.37333298  142.30499268    4.90999985    2.73000002
   18.37638855  138.64999390    4.90999985    2.73000002
   18.37972260  139.52699280    4.90999985    2.73000002
   18.38583374  139.52699280    4.90999985    2.73000002
   18.38972282  136.69700623    4.90999985    2.73000002
   18.39305496  131.80799866    4.90999985    2.73000002
   18.39638901  138.77900696    4.90999985    2.71000004
   18.39944458  138.47399902    4.90999985    2.73000002
   18.40277672  139.74000549    4.90999985    2.71000004
   18.40333366  137.39500427    4.90999985    2.73000002
   18.40638924  132.79899597    4.90999985    2.71000004
   18.40944481  135.43099976    4.90999985    2.73000002
   18.41277695  143.58000183    4.90999985    2.71000004
   18.41611099  140.63999939    4.90999985    2.73000002
   18.41916656  139.83000183    4.90999985    2.71000004
   18.42249870  137.10899353    4.90999985    2.73000002
   18.42860985  137.10899353    4.90999985    2.71000004
   18.43277740  140.27299500    4.90999985    2.73000002
   18.43583298  142.66200256    4.90999985    2.73000002
   18.43666649  136.15800476    4.90999985    2.73000002
   18.43944359  135.97700500    4.90999985    2.71000004
   18.44249916  140.22500610    4.90999985    2.73000002
   18.44583321  142.62600708    4.90999985    2.71000004
   18.44916534  139.96400452    4.90999985    2.73000002
   18.45222282  135.27299500    4.90999985    2.71000004
   18.45555687  142.08999634    4.90999985    2.71000004
   18.45888901  143.60800171    4.90999985    2.71000004
   18.46194458  141.59700012    4.90999985    2.71000004
   18.46527863  145.47399902    4.90999985    2.71000004
   18.47138977  145.47399902    4.90999985    2.71000004
   18.47555542  137.59199524    4.90999985    2.73000002
   18.47861099  135.10699463    4.90999985    2.71000004
   18.48194504  134.51100159    4.90999985    2.71000004
   18.48527718  141.47099304    4.90999985    2.71000004
   18.48833275  139.60800171    4.90999985    2.71000004
   18.49166679  138.90400696    4.90999985    2.71000004
   18.49500084  138.89700317    4.90999985    2.71000004
   18.49805641  145.83900452    4.90999985    2.71000004
   18.50138855  140.93600464    4.90999985    2.71000004
   18.50333405  139.89599609    4.90999985    2.71000004
   18.50499916  132.94799805    4.90999985    2.73000002
   18.50833321  136.39900208    4.90999985    2.73000002
   18.51416588  136.39900208    4.90999985    2.71000004
   18.51833344  141.75999451    4.90999985    2.71000004
   18.52166557  136.96699524    4.90999985    2.71000004
   18.52472115  141.84199524    4.90999985    2.71000004
   18.52805519  140.34700012    4.90999985    2.71000004
   18.53138924  134.44000244    4.90999985    2.71000004
   18.53444481  141.92100525    4.90999985    2.71000004
   18.53666687  142.59399414    4.90999985    2.71000004
   18.53805542  137.16600037    4.90999985    2.71000004
   18.54138756  137.45799255    4.90999985    2.71000004
   18.54444313  135.88699341    4.90999985    2.71000004
   18.54777718  134.27900696    4.90999985    2.71000004
   18.55083275  140.86399841    4.90999985    2.71000004
   18.55722237  140.86399841    4.90999985    2.71000004
   18.56110954  134.40800476    4.90999985    2.69000006
   18.56444359  129.57200623    4.90999985    2.71000004
   18.56777954  135.82099915    4.90999985    2.71000004
   18.57000160  139.93800354    4.90999985    2.71000004
   18.57139015  134.04899597    4.90999985    2.71000004
   18.57472229  145.06300354    4.90999985    2.71000004
   18.57777786  135.95899963    4.90999985    2.71000004
   18.58111191  131.64100647    4.90999985    2.71000004
   18.58416748  131.86399841    4.90999985    2.71000004
   18.58750153  135.14300537    4.90999985    2.71000004
   18.59083366  138.20899963    4.90999985    2.71000004
   18.59388924  145.74800110    4.90999985    2.71000004
   18.60000038  145.74800110    4.90999985    2.71000004
   18.60416794  134.06799316    4.90999985    2.71000004
   18.60722351  137.23500061    4.90999985    2.71000004
   18.61055565  137.52499390    4.90999985    2.71000004
   18.61361122  131.07800293    4.90999985    2.71000004
   18.61694527  136.86999512    4.90999985    2.71000004
   18.62027740  140.14999390    4.90999985    2.69000006
   18.62333298  133.39399719    4.90999985    2.71000004
   18.62666702  141.23199463    4.90999985    2.71000004
   18.63000107  132.58399963    4.90999985    2.69000006
   18.63305473  141.27600098    4.90999985    2.69000006
   18.63638878  135.06500244    4.90999985    2.71000004
   18.63694382  134.77000427    4.90999985    2.71000004
   18.64277840  134.77000427    4.90999985    2.71000004
   18.64694405  137.31399536    4.90999985    2.71000004
   18.64999962  136.90299988    4.90999985    2.71000004
   18.65333366  131.80900574    4.90999985    2.71000004
   18.65666580  134.51400757    4.90999985    2.71000004
   18.65972137  136.55000305    4.90999985    2.71000004
   18.66305542  136.10299683    4.90999985    2.71000004
   18.66638756  135.05000305    4.90999985    2.71000004
   18.66944313  134.63200378    4.90999985    2.71000004
   18.67027664  132.11599731    4.90999985    2.71000004
   18.67305565  139.64199829    4.90999985    2.71000004
   18.67638779  140.13499451    4.90999985    2.71000004
   18.67944336  139.27099609    4.90999985    2.71000004
   18.68555450  139.27099609    4.90999985    2.71000004
   18.68972206  140.22399902    4.90999985    2.71000004
   18.69305420  133.12500000    4.90999985    2.71000004
   18.69610977  133.75900269    4.90999985    2.71000004
   18.69944382  127.90100098    4.90999985    2.71000004
   18.70277786  123.95200348    4.90999985    2.69000006
   18.70361137  129.63999939    4.90999985    2.69000006
   18.70611191  131.37300110    4.90999985    2.69000006
   18.70944595  132.35800171    4.90999985    2.69000006
   18.71250153  134.59300232    4.90999985    2.71000004
   18.71583366  130.51800537    4.90999985    2.71000004
   18.71916771  133.05099487    4.90999985    2.71000004
   18.72222328  143.43099976    4.90999985    2.71000004
   18.72833443  143.43099976    4.90999985    2.71000004
   18.73250008  138.69700623    4.90999985    2.69000006
   18.73583412  142.87699890    4.90999985    2.69000006
   18.73694420  136.01100159    4.90999985    2.69000006
   18.73944473  131.52799988    4.90999985    2.71000004
   18.74277878  136.92900085    4.90999985    2.69000006
   18.74611092  144.60899353    4.90999985    2.69000006
   18.74916649  137.01499939    4.90999985    2.71000004
   18.75250053  138.53399658    4.90999985    2.71000004
   18.75583267  137.78999329    4.90999985    2.69000006
   18.75888824  136.72599792    4.90999985    2.69000006
   18.76222229  131.37800598    4.90999985    2.69000006
   18.76527786  133.19999695    4.90999985    2.69000006
   18.77138901  133.19999695    4.90999985    2.69000006
   18.77555466  137.39100647    4.90999985    2.71000004
   18.77861023  131.23300171    4.90999985    2.71000004
   18.78194427  140.59100342    4.90999985    2.69000006
   18.78499985  129.54600525    4.90999985    2.69000006
   18.78833199  136.13299561    4.90999985    2.71000004
   18.79166603  136.67100525    4.90999985    2.69000006
   18.79472160  131.65100098    4.90999985    2.69000006
   18.79805565  130.86700439    4.90999985    2.69000006
   18.80138779  137.61700439    4.90999985    2.69000006
   18.80360985  140.84100342    4.90999985    2.69000006
   18.80472183  132.38499451    4.90999985    2.69000006
   18.80805397  128.27099609    4.90999985    2.69000006
   18.81416512  128.27099609    4.90999985    2.69000006
   18.81833458  135.59199524    4.90999985    2.71000004
   18.82139015  125.50299835    4.90999985    2.71000004
   18.82472229  131.78399658    4.90999985    2.69000006
   18.82805634  134.75700378    4.90999985    2.69000006
   18.83111191  133.44999695    4.90999985    2.69000006
   18.83444595  141.32699585    4.90999985    2.69000006
   18.83694458  136.91799927    4.90999985    2.69000006
   18.83805656  138.36999512    4.90999985    2.69000006
   18.84138870  138.55200195    4.90999985    2.71000004
   18.84472275  135.54600525    4.90999985    2.69000006
   18.84777832  136.66999817    4.90999985    2.69000006
   18.85111237  137.39199829    4.90999985    2.69000006
   18.85694504  137.39199829    4.90999985    2.69000006
   18.86111069  142.75199890    4.90999985    2.69000006
   18.86444473  138.90800476    4.90999985    2.69000006
   18.86750031  141.54699707    4.90999985    2.69000006
   18.87027740  142.14399719    4.90999985    2.69000006
   18.87111092  148.00500488    4.90999985    2.69000006
   18.87444496  139.85299683    4.90999985    2.67000008
   18.87777710  137.01600647    4.90999985    2.69000006
   18.88083267  137.40400696    4.90999985    2.69000006
   18.88416672  142.92799377    4.90999985    2.69000006
   18.88722229  140.11199951    4.90999985    2.69000006
   18.89055634  136.51600647    4.90999985    2.69000006
   18.89388847  136.62500000    4.90999985    2.69000006
   18.89972115  136.62500000    4.90999985    2.69000006
   18.90388870  141.52799988    4.90999985    2.69000006
   18.90722275  141.08799744    4.90999985    2.69000006
   18.91055489  131.93499756    4.90999985    2.69000006
   18.91361046  136.25599670    4.90999985    2.69000006
   18.91694450  143.12199402    4.90999985    2.67000008
   18.92000008  134.61599731    4.90999985    2.71000004
   18.92333221  129.57800293    4.90999985    2.69000006
   18.92666626  139.39300537    4.90999985    2.67000008
   18.92972183  138.13699341    4.90999985    2.69000006
   18.93305397  134.99200439    4.90999985    2.69000006
   18.93610954  141.65499878    4.90999985    2.69000006
   18.93694305  143.95100403    4.90999985    2.69000006
   18.94277763  143.95100403    4.90999985    2.69000006
   18.94694328  136.97500610    4.90999985    2.69000006
   18.95000076  140.97599792    4.90999985    2.69000006
   18.95333481  141.89500427    4.90999985    2.69000006
   18.95639038  133.60800171    4.90999985    2.69000006
   18.95972252  134.81700134    4.90999985    2.69000006
   18.96305656  136.53799438    4.90999985    2.69000006
   18.96611214  136.67900085    4.90999985    2.69000006
   18.96944427  133.69500732    4.90999985    2.69000006
   18.97027779  142.30099487    4.90999985    2.69000006
   18.97277832  136.48800659    4.90999985    2.69000006
   18.97611237  145.62899780    4.90999985    2.69000006
   18.97944450  142.88299561    4.90999985    2.69000006
   18.98555565  142.88299561    4.90999985    2.69000006
   18.98972321  135.69200134    4.90999985    2.69000006
   18.99277878  139.53399658    4.90999985    2.69000006
   18.99611092  147.30700684    4.90999985    2.67000008
   18.99944496  144.53599548    4.90999985    2.69000006
   19.00250053  139.36700439    4.90999985    2.69000006
   19.00361061  138.66700745    4.90999985    2.69000006
   19.00611115  135.30299377    4.90999985    2.69000006
   19.00944519  140.05299377    4.90999985    2.69000006
   19.01277733  144.34899902    4.90999985    2.69000006
   19.01583290  132.55299377    4.90999985    2.67000008
   19.01916695  139.86900330    4.90999985    2.69000006
   19.02222252  139.25700378    4.90999985    2.69000006
   19.02833366  139.25700378    4.90999985    2.69000006
   19.03249931  138.45599365    4.90999985    2.69000006
   19.03583336  140.36799622    4.90999985    2.69000006
   19.03694344  132.84899902    4.90999985    2.67000008
   19.03916550  146.59700012    4.90999985    2.69000006
   19.04249954  138.97999573    4.90999985    2.69000006
   19.04583359  147.93200684    4.90999985    2.69000006
   19.04888916  136.76199341    4.90999985    2.67000008
   19.05222130  136.42599487    4.90999985    2.69000006
   19.05527687  131.31599426    4.90999985    2.69000006
   19.05861092  139.37699890    4.90999985    2.69000006
   19.06194305  141.00300598    4.90999985    2.69000006
   19.06499863  139.05599976    4.90999985    2.67000008
   19.07111168  139.05599976    4.90999985    2.69000006
   19.07527924  139.81399536    4.90999985    2.67000008
   19.07861137  136.54299927    4.90999985    2.67000008
   19.08194542  143.35400391    4.90999985    2.69000006
   19.08500099  139.94299316    4.90999985    2.67000008
   19.08833313  143.69299316    4.90999985    2.67000008
   19.09166718  137.02400208    4.90999985    2.69000006
   19.09472275  139.79200745    4.90999985    2.67000008
   19.09805679  139.41299438    4.90999985    2.67000008
   19.10138893  145.66400146    4.90999985    2.69000006
   19.10361099  137.64700317    4.90999985    2.67000008
   19.10472298  142.04299927    4.90999985    2.67000008
   19.10805511  141.82200623    4.90999985    2.67000008
   19.11416626  141.82200623    4.90999985    2.67000008
   19.11805534  138.75300598    4.90999985    2.67000008
   19.12138939  145.60600281    4.90999985    2.67000008
   19.12472153  158.15100098    4.90999985    2.67000008
   19.12777710  138.26199341    4.90999985    2.69000006
   19.13111115  141.42999268    4.90999985    2.69000006
   19.13444519  140.20799255    4.90999985    2.69000006
   19.13694382  143.96000671    4.90999985    2.67000008
   19.13777733  141.92100525    4.90999985    2.67000008
   19.14111137  136.68099976    4.90999985    2.67000008
   19.14444351  132.39799500    4.90999985    2.69000006
   19.14749908  133.30700684    4.90999985    2.67000008
   19.15083313  137.02400208    4.90999985    2.67000008
   19.15694427  137.02400208    4.90999985    2.67000008
   19.16110992  135.26699829    4.90999985    2.67000008
   19.16416550  136.05099487    4.90999985    2.67000008
   19.16749954  134.80200195    4.90999985    2.67000008
   19.18499947  146.04400635    4.90999985    2.66000009
   19.18750000  135.17300415    4.90999985    2.67000008
   19.19083214  138.33900452    4.90999985    2.67000008
   19.19388771  138.64999390    4.90999985    2.67000008
   19.20000076  138.64999390    4.90999985    2.67000008
   19.20388985  141.61700439    4.90999985    2.67000008
   19.20722389  135.03300476    4.90999985    2.66000009
   19.21055603  128.02699280    4.90999985    2.66000009
   19.21361160  142.62100220    4.90999985    2.67000008
   19.21694565  140.31799316    4.90999985    2.67000008
   19.21833420  133.40800476    4.90999985    2.67000008
   19.22055626  134.26600647    4.90999985    2.67000008
   19.22361183  137.24099731    4.90999985    2.67000008
   19.22694588  142.51699829    4.90999985    2.67000008
   19.23000145  143.12600708    4.90999985    2.67000008
   19.23333359  141.10299683    4.90999985    2.67000008
   19.23666763  137.35699463    4.90999985    2.67000008
   19.24277878  137.35699463    4.90999985    2.66000009
   19.24694443  138.58599854    4.90999985    2.67000008
   19.25000000  141.79899597    4.90999985    2.66000009
   19.25166702  136.68600464    4.90999985    2.67000008
   19.25388908  143.09599304    4.90999985    2.66000009
   19.25694466  138.25900269    4.90999985    2.66000009
   19.26027870  138.83399963    4.90999985    2.66000009
   19.26333427  139.49000549    4.90999985    2.67000008
   19.26666641  136.12699890    4.90999985    2.67000008
   19.27000046  147.02999878    4.90999985    2.67000008
   19.27305603  138.67500305    4.90999985    2.66000009
   19.27638817  133.18299866    4.90999985    2.66000009
   19.27972221  141.16000366    4.90999985    2.67000008
   19.28555489  141.16000366    4.90999985    2.66000009
   19.28972244  139.91799927    4.90999985    2.66000009
   19.29305458  139.46800232    4.90999985    2.67000008
   19.29611015  139.67599487    4.90999985    2.66000009
   19.29944420  138.08999634    4.90999985    2.67000008
   19.30249977  142.84599304    4.90999985    2.66000009
   19.30583191  137.41299438    4.90999985    2.67000008
   19.30916595  134.16299438    4.90999985    2.67000008
   19.31222153  141.55400085    4.90999985    2.66000009
   19.31555557  140.35099792    4.90999985    2.67000008
   19.31833458  138.51300049    4.90999985    2.66000009
   19.31916809  138.23300171    4.90999985    2.66000009
   19.32222366  145.96600342    4.90999985    2.66000009
   19.32833481  145.96600342    4.90999985    2.66000009
   19.33250046  135.38299561    4.90999985    2.67000008
   19.33583450  137.69599915    4.90999985    2.66000009
   19.33889008  142.04699707    4.90999985    2.67000008
   19.34222221  138.84899902    4.90999985    2.66000009
   19.34555626  140.16999817    4.90999985    2.66000009
   19.34861183  137.30700684    4.90999985    2.66000009
   19.35166740  138.74000549    4.90999985    2.66000009
   19.35250092  136.40299988    4.90999985    2.66000009
   19.35583305  134.48300171    4.90999985    2.66000009
   19.35888863  137.69900513    4.90999985    2.66000009
   19.36222267  141.25100708    4.90999985    2.66000009
   19.36527824  146.33200073    4.90999985    2.66000009
   19.37138939  146.33200073    4.90999985    2.66000009
   19.37527847  139.36700439    4.90999985    2.67000008
   19.37861061  138.66999817    4.90999985    2.66000009
   19.38194466  146.68499756    4.90999985    2.66000009
   19.38500023  141.08799744    4.90999985    2.66000009
   19.38555527  144.30999756    4.90999985    2.66000009
   19.38861084  146.07299805    4.90999985    2.66000009
   19.39194489  139.15100098    4.90999985    2.66000009
   19.39500046  142.96899414    4.90999985    2.66000009
   19.39833260  136.86799622    4.90999985    2.66000009
   19.40166664  145.09199524    4.90999985    2.66000009
   19.40472221  144.27099609    4.90999985    2.66000009
   19.40805435  141.27000427    4.90999985    2.66000009
   19.41416550  141.27000427    4.90999985    2.66000009
   19.41833305  141.36599731    4.90999985    2.66000009
   19.41860962  136.72500610    4.90999985    2.66000009
   19.42194366  139.09300232    4.90999985    2.66000009
   19.42527771  142.47200012    4.90999985    2.66000009
   19.42833328  139.39700317    4.90999985    2.66000009
   19.43166542  139.97700500    4.90999985    2.66000009
   19.43499947  151.88200378    4.90999985    2.66000009
   19.43805504  144.45700073    4.90999985    2.66000009
   19.44138718  144.17999268    4.90999985    2.66000009
   19.44444275  144.64900208    4.90999985    2.66000009
   19.44777679  137.44000244    4.90999985    2.66000009
   19.45111275  140.83399963    4.90999985    2.66000009
   19.45194435  139.27400208    4.90999985    2.66000009
   19.45694542  139.27400208    4.90999985    2.66000009
   19.46111107  139.79899597    4.90999985    2.66000009
   19.46444511  148.21400452    4.90999985    2.66000009
   19.46750069  143.22000122    4.90999985    2.66000009
   19.47083473  136.35699463    4.90999985    2.64000010
   19.47389030  138.44200134    4.90999985    2.66000009
   19.47722244  141.83900452    4.90999985    2.66000009
   19.48055649  139.64900208    4.90999985    2.66000009
   19.48361206  142.66999817    4.90999985    2.66000009
   19.48527718  136.08599854    4.90999985    2.64000010
   19.48722267  141.75500488    4.90999985    2.66000009
   19.49055672  147.47300720    4.90999985    2.64000010
   19.49361229  138.83799744    4.90999985    2.66000009
   19.49972153  138.83799744    4.90999985    2.66000009
   19.50388908  146.00300598    4.90999985    2.66000009
   19.50722313  149.39199829    4.90999985    2.66000009
   19.51027870  141.22799683    4.90999985    2.64000010
   19.51361084  147.49600220    4.90999985    2.64000010
   19.51694489  146.05599976    4.90999985    2.64000010
   19.51861000  140.86900330    4.90999985    2.64000010
   19.52027702  138.99400330    4.90999985    2.64000010
   19.52361107  136.98800659    4.90999985    2.64000010
   19.52666664  146.30299377    4.90999985    2.64000010
   19.53000069  141.62600708    4.90999985    2.66000009
   19.53333282  133.90199280    4.90999985    2.66000009
   19.53638840  136.26899719    4.90999985    2.66000009
   19.54277802  136.26899719    4.90999985    2.64000010
   19.54666710  151.85299683    4.90999985    2.64000010
   19.54999924  148.33900452    4.90999985    2.64000010
   19.55194283  143.06100464    4.90999985    2.64000010
   19.55360985  147.66499329    4.90999985    2.64000010
   19.55694389  150.86099243    4.90999985    2.64000010
   19.55999947  145.13699341    4.90999985    2.64000010
   19.56333351  149.60200500    4.90999985    2.66000009
   19.56666756  145.84599304    4.90999985    2.64000010
   19.56972313  153.58799744    4.90999985    2.66000009
   19.57305717  155.79400635    4.90999985    2.64000010
   19.57611275  150.99499512    4.90999985    2.64000010
   19.57944489  154.58099365    4.90999985    2.64000010
   19.58555603  154.58099365    4.90999985    2.64000010
   19.58972359  145.26300049    4.90999985    2.64000010
   19.59277916  152.59500122    4.90999985    2.64000010
   19.59611130  143.86000061    4.90999985    2.64000010
   19.59944534  151.85299683    4.90999985    2.64000010
   19.60250092  146.85400391    4.90999985    2.64000010
   19.60583305  144.49000549    4.90999985    2.64000010
   19.60916710  149.88000488    4.90999985    2.64000010
   19.61222267  155.92900085    4.90999985    2.64000010
   19.61555672  149.15400696    4.90999985    2.64000010
   19.61888885  145.95599365    4.90999985    2.64000010
   19.61916733  143.54400635    4.90999985    2.64000010
   19.62249947  147.88099670    4.90999985    2.64000010
   19.62833405  147.88099670    4.90999985    2.64000010
   19.63249969  143.82699585    4.90999985    2.64000010
   19.63583374  148.38800049    4.90999985    2.61999989
   19.63888931  148.11799622    4.90999985    2.64000010
   19.64222145  143.78999329    4.90999985    2.64000010
   19.64527702  145.25999451    4.90999985    2.64000010
   19.64861107  146.63999939    4.90999985    2.64000010
   19.65194321  147.96499634    4.90999985    2.64000010
   19.65222168  142.18299866    4.90999985    2.64000010
   19.65555573  143.45100403    4.90999985    2.64000010
   19.65888786  144.48300171    4.90999985    2.64000010
   19.66194344  137.37500000    4.90999985    2.64000010
   19.66527748  141.61300659    4.90999985    2.64000010
   19.67111015  141.61300659    4.90999985    2.61999989
   19.67527771  145.75599670    4.90999985    2.64000010
   19.67860985  143.75300598    4.90999985    2.64000010
   19.68166542  144.89999390    4.90999985    2.64000010
   19.68499947  142.40199280    4.90999985    2.64000010
   19.68555450  147.62600708    4.90999985    2.64000010
   19.68861008  153.32699585    4.90999985    2.61999989
   19.69194412  153.80099487    4.90999985    2.61999989
   19.69499969  147.59199524    4.90999985    2.61999989
   19.69833183  152.72200012    4.90999985    2.61999989
   19.70166779  150.60600281    4.90999985    2.61999989
   19.70472336  141.58000183    4.90999985    2.61999989
   19.70805550  144.60499573    4.90999985    2.61999989
   19.71416664  144.60499573    4.90999985    2.61999989
   19.71805573  148.03199768    4.90999985    2.61999989
   19.71888924  146.19999695    4.90999985    2.64000010
   19.72166634  141.43800354    4.90999985    2.61999989
   19.72500038  144.49499512    4.90999985    2.64000010
   19.72805595  147.83200073    4.90999985    2.61999989
   19.73139000  131.23100281    4.90999985    2.61999989
   19.73444557  135.78500366    4.90999985    2.61999989
   19.73777771  144.54200745    4.90999985    2.61999989
   19.74111176  141.92799377    4.90999985    2.61999989
   19.74416733  144.67700195    4.90999985    2.61999989
   19.74749947  142.98100281    4.90999985    2.61999989
   19.75083351  139.28799438    4.90999985    2.61999989
   19.75250053  142.52000427    4.90999985    2.64000010
   19.75694466  142.52000427    4.90999985    2.61999989
   19.76111031  146.45700073    4.90999985    2.61999989
   19.76416588  145.72799683    4.90999985    2.61999989
   19.76749992  143.23800659    4.90999985    2.61999989
   19.77083397  147.13600159    4.90999985    2.61999989
   19.77388954  143.95399475    4.90999985    2.61999989
   19.77722168  147.40899658    4.90999985    2.61999989
   19.78055573  143.17100525    4.90999985    2.61999989
   19.78361130  137.68600464    4.90999985    2.61999989
   19.78583336  146.06599426    4.90999985    2.61999989
   19.78722191  136.77499390    4.90999985    2.61999989
   19.79055595  140.64300537    4.90999985    2.61999989
   19.79361153  139.99400330    4.90999985    2.59999990
   19.79972076  139.99400330    4.90999985    2.61999989
   19.80388832  144.40400696    4.90999985    2.61999989
   19.80694389  141.14700317    4.90999985    2.59999990
   19.81027794  139.34800720    4.90999985    2.61999989
   19.81361008  142.43200684    4.90999985    2.61999989
   19.81666756  145.69200134    4.90999985    2.59999990
   19.81916809  139.70100403    4.90999985    2.59999990
   19.82027817  142.05499268    4.90999985    2.59999990
   19.82361221  139.36599731    4.90999985    2.59999990
   19.82666779  142.17199707    4.90999985    2.61999989
   19.83000183  150.30200195    4.90999985    2.59999990
   19.83333397  141.91900635    4.90999985    2.59999990
   19.83638954  151.61700439    4.90999985    2.59999990
   19.84250069  151.61700439    4.90999985    2.59999990
   19.84666824  142.48199463    4.90999985    2.59999990
   19.85000038  146.50000000    4.90999985    2.59999990
   19.85250092  144.83500671    4.90999985    2.59999990
   19.85361099  141.51100159    4.90999985    2.61999989
   19.85694504  136.22700500    4.90999985    2.61999989
   19.86000061  137.86999512    4.90999985    2.59999990
   19.86333466  136.36300659    4.90999985    2.59999990
   19.86666679  140.85000610    4.90999985    2.59999990
   19.86972237  142.30299377    4.90999985    2.61999989
   19.87305641  147.48800659    4.90999985    2.59999990
   19.87611198  140.62199402    4.90999985    2.59999990
   19.87944412  140.66499329    4.90999985    2.59999990
   19.88555527  140.66499329    4.90999985    2.59999990
   19.88944435  145.53999329    4.90999985    2.59999990
   19.89277840  145.74600220    4.90999985    2.59999990
   19.89611053  143.04699707    4.90999985    2.59999990
   19.89916611  141.66700745    4.90999985    2.59999990
   19.90250015  150.84500122    4.90999985    2.59999990
   19.90583229  140.82200623    4.90999985    2.59999990
   19.90888786  144.75100708    4.90999985    2.57999992
   19.91222191  146.81700134    4.90999985    2.59999990
   19.91527748  143.99200439    4.90999985    2.59999990
   19.91860962  149.29800415    4.90999985    2.59999990
   19.92055511  144.24600220    4.90999985    2.59999990
   19.92222214  144.30000305    4.90999985    2.59999990
   19.92833328  144.30000305    4.90999985    2.59999990
   19.93249893  149.24299622    4.90999985    2.59999990
   19.93555450  134.32499695    4.90999985    2.59999990
   19.93888855  140.81799316    4.90999985    2.57999992
   19.94222069  140.65699768    4.90999985    2.59999990
   19.94527626  143.87699890    4.90999985    2.59999990
   19.94861031  140.11999512    4.90999985    2.59999990
   19.95166779  141.69500732    4.90999985    2.59999990
   19.95388985  142.38299561    4.90999985    2.59999990
   19.95527840  142.15499878    4.90999985    2.59999990
   19.95861244  141.37300110    4.90999985    2.59999990
   19.96194458  139.28999329    4.90999985    2.59999990
   19.96500015  146.91099548    4.90999985    2.59999990
   19.97111130  146.91099548    4.90999985    2.59999990
   19.97527885  145.38000488    4.90999985    2.57999992
   19.97861099  143.92300415    4.90999985    2.57999992
   19.98166656  145.03700256    4.90999985    2.57999992
   19.98500061  149.62199402    4.90999985    2.59999990
   19.98722267  141.19900513    4.90999985    2.57999992
   19.98861122  141.60499573    4.90999985    2.59999990
   19.99194527  147.53500366    4.90999985    2.59999990
   19.99500084  142.22399902    4.90999985    2.59999990
   19.99833298  139.78399658    4.90999985    2.57999992
   20.00138855  151.07000732    4.90999985    2.57999992
   20.00472260  144.33700562    4.90999985    2.59999990
   20.00805473  144.98699951    4.90999985    2.57999992
   20.01388931  144.98699951    4.90999985    2.57999992
   20.01805496  149.31500244    4.90999985    2.57999992
   20.02055550  147.69400024    4.90999985    2.57999992
   20.02166557  143.50799561    4.90999985    2.57999992
   20.02499962  149.53100586    4.90999985    2.59999990
   20.02805519  146.02799988    4.90999985    2.59999990
   20.03138924  137.77099609    4.90999985    2.57999992
   20.03444481  147.96000671    4.90999985    2.57999992
   20.03777695  148.77299500    4.90999985    2.57999992
   20.04111099  147.47900391    4.90999985    2.57999992
   20.04416656  143.04600525    4.90999985    2.57999992
   20.04749870  144.89399719    4.90999985    2.57999992
   20.05083275  143.42900085    4.90999985    2.57999992
   20.05694389  143.42900085    4.90999985    2.57999992
   20.06083298  141.04100037    4.90999985    2.57999992
   20.06416512  149.33999634    4.90999985    2.57999992
   20.06750107  143.88600159    4.90999985    2.57999992
   20.07055664  147.43499756    4.90999985    2.57999992
   20.07389069  143.51499939    4.90999985    2.57999992
   20.07722282  145.49299622    4.90999985    2.57999992
   20.08027840  146.32899475    4.90999985    2.57999992
   20.08361244  142.75199890    4.90999985    2.57999992
   20.08666801  150.74099731    4.90999985    2.57999992
   20.08777809  150.67900085    4.90999985    2.57999992
   20.09027863  153.38099670    4.90999985    2.57999992
   20.09361267  155.72300720    4.90999985    2.57999992
   20.09972191  155.72300720    4.90999985    2.57999992
   20.10388947  161.17199707    4.90999985    2.57999992
   20.10694504  167.27499390    4.90999985    2.55999994
   20.11027908  175.63800049    4.90999985    2.57999992
   20.11361122  218.42599487    4.90999985    2.57999992
   20.11666679  200.56199646    4.90999985    2.57999992
   20.12000084  139.44900513    4.90999985    2.55999994
   20.12111092  176.55700684    4.90999985    2.57999992
   20.12333298   -1.00000000    4.90999985    2.57999992
   20.12666702   -1.00000000    4.90999985    2.55999994
   20.13000107   -1.00000000    4.90999985    2.55999994
   20.13305473   -1.00000000    4.90999985    2.57999992
   20.13638878   -1.00000000    4.90999985    2.55999994
   20.14666748   -1.00000000    4.90999985    2.55999994
   20.14972115   -1.00000000    4.90999985    2.55999994
   20.15305519   -1.00000000    4.90999985    2.55999994
   20.15666580   -1.00000000    4.90999985    2.55999994
   20.15999985   -1.00000000    4.90999985    2.55999994
   20.16305542   -1.00000000    4.90999985    2.55999994
   20.16638756   -1.00000000    4.90999985    2.57999992
   20.16944313   -1.00000000    4.90999985    2.55999994
   20.17277718   -1.00000000    4.90999985    2.55999994
   20.17611122   -1.00000000    4.90999985    2.55999994
   20.17916679   -1.00000000    4.90999985    2.55999994
   20.20361137   -1.00000000    4.90999985    2.55999994
   20.20694542   -1.00000000    4.90999985    2.55999994
   20.21027946   -1.00000000    4.90999985    2.55999994
   20.21333504   -1.00000000    4.90999985    2.55999994
   20.21666718   -1.00000000    4.90999985    2.55999994
   20.21972275   -1.00000000    4.90999985    2.55999994
   20.22305679   -1.00000000    4.90999985    2.55999994
   20.23250008   -1.00000000    4.90999985    2.55999994
   20.23555565   -1.00000000    4.90999985    2.55999994
   20.23916626   -1.00000000    4.90999985    2.55999994
   20.24222183   -1.00000000    4.90999985    2.55999994
   20.24555588   -1.00000000    4.90999985    2.55999994
   20.24861145   -1.00000000    4.90999985    2.53999996
   20.25194359   -1.00000000    4.90999985    2.53999996
   20.25527763   -1.00000000    4.90999985    2.53999996
   20.25833321   -1.00000000    4.90999985    2.53999996
   20.26166725   -1.00000000    4.90999985    2.53999996
   20.26472282   -1.00000000    4.90999985    2.53999996
   20.27527809   -1.00000000    4.90999985    2.55999994
   20.27861023   -1.00000000    4.90999985    2.53999996
   20.28166580   -1.00000000    4.90999985    2.53999996
   20.28499985   -1.00000000    4.90999985    2.53999996
   20.28805542   -1.00000000    4.90999985    2.53999996
   20.29138756   -1.00000000    4.90999985    2.53999996
   20.29472160   -1.00000000    4.90999985    2.53999996
   20.29777718   -1.00000000    4.90999985    2.53999996
   20.30111122   -1.00000000    4.90999985    2.53999996
   20.30472183   -1.00000000    4.90999985    2.53999996
   20.30777740   -1.00000000    4.90999985    2.53999996
   20.31805611   -1.00000000    4.90999985    2.53999996
   20.32139015   -1.00000000    4.90999985    2.53999996
   20.32444572   -1.00000000    4.90999985    2.53999996
   20.32777786   -1.00000000    4.90999985    2.53999996
   20.33111191   -1.00000000    4.90999985    2.51999998
   20.33416748   -1.00000000    4.90999985    2.53999996
   20.33777809   -1.00000000    4.90999985    2.53999996
   20.34083366   -1.00000000    4.90999985    2.53999996
   20.34416771   -1.00000000    4.90999985    2.53999996
   20.34749985   -1.00000000    4.90999985    2.51999998
   20.35055542   -1.00000000    4.90999985    2.53999996
   20.36111069   -1.00000000    4.90999985    2.51999998
   20.36416626   -1.00000000    4.90999985    2.51999998
   20.36750031   -1.00000000    4.90999985    2.51999998
   20.37111092   -1.00000000    4.90999985    2.51999998
   20.37416649   -1.00000000    4.90999985    2.51999998
   20.37750053   -1.00000000    4.90999985    2.51999998
   20.38083267   -1.00000000    4.90999985    2.51999998
   20.38388824   -1.00000000    4.90999985    2.51999998
   20.38722229   -1.00000000    4.90999985    2.51999998
   20.39027786   -1.00000000    4.90999985    2.51999998
   20.39361191   -1.00000000    4.90999985    2.51999998
   20.40388870   -1.00000000    4.90999985    2.50000000
   20.40694427   -1.00000000    4.90999985    2.51999998
   20.41027832   -1.00000000    4.90999985    2.51999998
   20.41361046   -1.00000000    4.90999985    2.51999998
   20.41666603   -1.00000000    4.90999985    2.50000000
   20.42000008   -1.00000000    4.90999985    2.50000000
   20.42333221   -1.00000000    4.90999985    2.50000000
   20.42638779   -1.00000000    4.90999985    2.50000000
   20.42972183   -1.00000000    4.90999985    2.50000000
   20.43277740   -1.00000000    4.90999985    2.50000000
   20.43610954   -1.00000000    4.90999985    2.50000000
   20.44666672   -1.00000000    4.90999985    2.50000000
   20.45000076   -1.00000000    4.90999985    2.50000000
   20.45305634   -1.00000000    4.90999985    2.50000000
   20.45639038   -1.00000000    4.90999985    2.50000000
   20.45944595   -1.00000000    4.90999985    2.48000002
   20.46277809   -1.00000000    4.90999985    2.50000000
   20.46611214   -1.00000000    4.90999985    2.50000000
   20.46916771   -1.00000000    4.90999985    2.50000000
   20.47277832   -1.00000000    4.90999985    2.50000000
   20.47583389   -1.00000000    4.90999985    2.48000002
   20.47916794   -1.00000000    4.90999985    2.50000000
   20.48944473   -1.00000000    4.90999985    2.50000000
   20.49277878   -1.00000000    4.90999985    2.48000002
   20.49583435   -1.00000000    4.90999985    2.48000002
   20.49916649   -1.00000000    4.90999985    2.50000000
   20.50250053   -1.00000000    4.90999985    2.48000002
   20.50611115   -1.00000000    4.90999985    2.48000002
   20.50916672   -1.00000000    4.90999985    2.48000002
   20.51250076   -1.00000000    4.90999985    2.50000000
   20.51583290   -1.00000000    4.90999985    2.48000002
   20.51888847   -1.00000000    4.90999985    2.48000002
   20.52222252   -1.00000000    4.90999985    2.48000002
   20.53249931   -1.00000000    4.90999985    2.46000004
   20.53555489   -1.00000000    4.90999985    2.48000002
   20.53916550   -1.00000000    4.90999985    2.48000002
   20.54222107   -1.00000000    4.90999985    2.48000002
   20.54555511   -1.00000000    4.90999985    2.48000002
   20.54888916   -1.00000000    4.90999985    2.46000004
   20.55194283   -1.00000000    4.90999985    2.46000004
   20.55527687   -1.00000000    4.90999985    2.46000004
   20.55833244   -1.00000000    4.90999985    2.48000002
   20.56166649   -1.00000000    4.90999985    2.46000004
   20.56499863   -1.00000000    4.90999985    2.46000004
   20.57527924   -1.00000000    4.90999985    2.46000004
   20.57833481   -1.00000000    4.90999985    2.46000004
   20.58166695   -1.00000000    4.90999985    2.48000002
   20.58500099   -1.00000000    4.90999985    2.48000002
   20.58805656   -1.00000000    4.90999985    2.46000004
   20.59138870   -1.00000000    4.90999985    2.46000004
   20.59444427   -1.00000000    4.90999985    2.46000004
   20.59777832   -1.00000000    4.90999985    2.46000004
   20.60111237   -1.00000000    4.90999985    2.46000004
   20.60472298   -1.00000000    4.90999985    2.46000004
   20.60777855   -1.00000000    4.90999985    2.46000004
   20.61805534   -1.00000000    4.90999985    2.46000004
   20.62138939   -1.00000000    4.90999985    2.46000004
   20.62444496   -1.00000000    4.90999985    2.46000004
   20.62777710   -1.00000000    4.90999985    2.46000004
   20.63111115   -1.00000000    4.90999985    2.46000004
   20.63416672   -1.00000000    4.90999985    2.46000004
   20.63777733   -1.00000000    4.90999985    2.46000004
   20.64083290   -1.00000000    4.90999985    2.46000004
   20.64416695   -1.00000000    4.90999985    2.44000006
   20.64749908   -1.00000000    4.90999985    2.46000004
   20.65055466   -1.00000000    4.90999985    2.44000006
   20.66083336   -1.00000000    4.90999985    2.46000004
   20.66416550   -1.00000000    4.90999985    2.44000006
   20.66722107   -1.00000000    4.90999985    2.46000004
   20.67083359   -1.00000000    4.90999985    2.44000006
   20.67388916   -1.00000000    4.90999985    2.44000006
   20.67722130   -1.00000000    4.90999985    2.44000006
   20.68055534   -1.00000000    4.90999985    2.44000006
   20.68361092   -1.00000000    4.90999985    2.44000006
   20.68694305   -1.00000000    4.90999985    2.44000006
   20.68999863   -1.00000000    4.90999985    2.44000006
   20.69333267   -1.00000000    4.90999985    2.44000006
   20.70361137   -1.00000000    4.90999985    2.42000008
   20.70694542   -1.00000000    4.90999985    2.44000006
   20.71027946   -1.00000000    4.90999985    2.42000008
   20.71333504   -1.00000000    4.90999985    2.44000006
   20.71666718   -1.00000000    4.90999985    2.44000006
   20.72000122   -1.00000000    4.90999985    2.44000006
   20.72305679   -1.00000000    4.90999985    2.42000008
   20.72638893   -1.00000000    4.90999985    2.42000008
   20.72944450   -1.00000000    4.90999985    2.42000008
   20.73277855   -1.00000000    4.90999985    2.42000008
   20.73611069   -1.00000000    4.90999985    2.42000008
   20.74666786   -1.00000000    4.90999985    2.42000008
