    HOUR (UT)   FLARE FACTOR    SKY TESTER    SUN TESTER
   13.30749989   -1.00000000   -1.00000000   -1.00000000
   13.36194515  166.81900024    4.90999985    2.61999989
   13.36500072  170.94599915    4.90999985    2.61999989
   13.36833382  164.57699585    4.90999985    2.61999989
   13.37166691  164.17700195    4.90999985    2.61999989
   13.37472248  168.58799744    4.90999985    2.64000010
   13.37805557  164.98800659    4.90999985    2.61999989
   13.38222218  164.98800659    4.90999985    2.61999989
   13.38611126  171.40600586    4.90999985    2.64000010
   13.38944435  165.24200439    4.90999985    2.61999989
   13.39277744  172.14100647    4.90999985    2.61999989
   13.39499950  165.60400391    4.90999985    2.64000010
   13.39638901  166.14799500    4.90999985    2.64000010
   13.39972210  166.33200073    4.90999985    2.64000010
   13.40277767  176.50300598    4.90999985    2.64000010
   13.40611076  170.09599304    4.90999985    2.64000010
   13.40944386  169.87899780    4.90999985    2.64000010
   13.41249943  162.38099670    4.90999985    2.64000010
   13.41583252  167.13099670    4.90999985    2.64000010
   13.41888905  166.52099609    4.90999985    2.64000010
   13.42500019  166.52099609    4.90999985    2.64000010
   13.42916679  165.35000610    4.90999985    2.64000010
   13.43222237  162.48800659    4.90999985    2.64000010
   13.43555546  163.19900513    4.90999985    2.64000010
   13.43861103  170.43499756    4.90999985    2.64000010
   13.44194412  169.71800232    4.90999985    2.64000010
   13.44527817  173.57899475    4.90999985    2.64000010
   13.44833374  171.73699951    4.90999985    2.64000010
   13.45166683  170.13900757    4.90999985    2.64000010
   13.45472240  166.17399597    4.90999985    2.64000010
   13.45805550  166.19700623    4.90999985    2.64000010
   13.46138859  170.60800171    4.90999985    2.64000010
   13.46166611  167.28199768    4.90999985    2.64000010
   13.46777725  167.28199768    4.90999985    2.64000010
   13.47194386  171.63699341    4.90999985    2.64000010
   13.47499943  162.67300415    4.90999985    2.64000010
   13.47833252  165.14900208    4.90999985    2.64000010
   13.48166656  167.78399658    4.90999985    2.64000010
   13.48472214  168.34599304    4.90999985    2.64000010
   13.48805618  166.91600037    4.90999985    2.64000010
   13.49138927  165.42500305    4.90999985    2.66000009
   13.49444485  167.69099426    4.90999985    2.64000010
   13.49499989  170.97999573    4.90999985    2.66000009
   13.49805546  162.64599609    4.90999985    2.64000010
   13.50138855  163.96800232    4.90999985    2.64000010
   13.50444412  165.44599915    4.90999985    2.64000010
   13.51055527  165.44599915    4.90999985    2.64000010
   13.51472187  161.39599609    4.90999985    2.64000010
   13.51805496  165.14399719    4.90999985    2.64000010
   13.52111053  166.60699463    4.90999985    2.66000009
   13.52444458  156.37199402    4.90999985    2.66000009
   13.52750015  165.92700195    4.90999985    2.64000010
   13.52861118  162.10000610    4.90999985    2.66000009
   13.53111076  162.73800659    4.90999985    2.64000010
   13.53444481  165.22300720    4.90999985    2.66000009
   13.53750038  166.14999390    4.90999985    2.66000009
   13.54083347  159.74099731    4.90999985    2.64000010
   13.54416752  168.08399963    4.90999985    2.66000009
   13.54722309  165.36199951    4.90999985    2.66000009
   13.55333328  165.36199951    4.90999985    2.66000009
   13.55749989  162.63499451    4.90999985    2.66000009
   13.56083393  165.01600647    4.90999985    2.66000009
   13.56194496  167.23500061    4.90999985    2.66000009
   13.56444454  169.31300354    4.90999985    2.66000009
   13.56777763  161.22000122    4.90999985    2.66000009
   13.57083321  163.31199646    4.90999985    2.66000009
   13.57416630  168.62699890    4.90999985    2.66000009
   13.57750034  166.51499939    4.90999985    2.66000009
   13.58055592  174.72500610    4.90999985    2.66000009
   13.58388901  162.53799438    4.90999985    2.66000009
   13.58722210  159.09500122    4.90999985    2.66000009
   13.59027767  163.20100403    4.90999985    2.66000009
   13.59638882  163.20100403    4.90999985    2.67000008
   13.60055637  158.62399292    4.90999985    2.66000009
   13.60361195  158.61700439    4.90999985    2.66000009
   13.60694504  161.70599365    4.90999985    2.66000009
   13.61000061  156.91700745    4.90999985    2.66000009
   13.61333370  163.80799866    4.90999985    2.67000008
   13.61666679  152.60800171    4.90999985    2.66000009
   13.61972237  159.63800049    4.90999985    2.66000009
   13.62305546  163.81900024    4.90999985    2.66000009
   13.62638855  160.38499451    4.90999985    2.66000009
   13.62861156  158.61000061    4.90999985    2.67000008
   13.62972260  157.08500671    4.90999985    2.67000008
   13.63305569  161.91999817    4.90999985    2.66000009
   13.63916683  161.91999817    4.90999985    2.66000009
   13.64333344  159.58999634    4.90999985    2.66000009
   13.64638901  160.40600586    4.90999985    2.66000009
   13.64972210  157.07499695    4.90999985    2.66000009
   13.65305519  167.29600525    4.90999985    2.66000009
   13.65611076  158.40199280    4.90999985    2.67000008
   13.65944386  163.59399414    4.90999985    2.67000008
   13.66194439  159.35600281    4.90999985    2.67000008
   13.66305542  156.78300476    4.90999985    2.67000008
   13.66638851  154.96600342    4.90999985    2.67000008
   13.66944504  158.05000305    4.90999985    2.67000008
   13.67277813  162.01199341    4.90999985    2.67000008
   13.67611122  161.93600464    4.90999985    2.66000009
   13.68194485  161.93600464    4.90999985    2.67000008
   13.68611145  153.80000305    4.90999985    2.67000008
   13.68944454  157.29100037    4.90999985    2.67000008
   13.69250011  155.41000366    4.90999985    2.67000008
   13.69527817  159.33900452    4.90999985    2.67000008
   13.69611073  160.20199585    4.90999985    2.67000008
   13.69944477  153.38099670    4.90999985    2.67000008
   13.70249939  151.33099365    4.90999985    2.67000008
   13.70583344  152.60600281    4.90999985    2.67000008
   13.70916653  163.19799805    4.90999985    2.67000008
   13.71222210  154.28199768    4.90999985    2.67000008
   13.71555519  153.24600220    4.90999985    2.67000008
   13.71861076  157.34500122    4.90999985    2.67000008
   13.72499943  157.34500122    4.90999985    2.67000008
   13.72888851  168.98500061    4.90999985    2.67000008
   13.73222160  159.69099426    4.90999985    2.67000008
   13.73555565  159.73800659    4.90999985    2.67000008
   13.73861122  161.08599854    4.90999985    2.67000008
   13.74194431  159.27099609    4.90999985    2.67000008
   13.74527836  164.44900513    4.90999985    2.67000008
   13.74833393  157.91999817    4.90999985    2.67000008
   13.75166702  162.23500061    4.90999985    2.67000008
   13.75472260  162.84100342    4.90999985    2.67000008
   13.75805569  155.55099487    4.90999985    2.69000006
   13.76138878  155.42100525    4.90999985    2.69000006
   13.76194477  156.05299377    4.90999985    2.67000008
   13.76777744  156.05299377    4.90999985    2.67000008
   13.77194405  154.69900513    4.90999985    2.67000008
   13.77499962  158.22399902    4.90999985    2.67000008
   13.77833271  155.90699768    4.90999985    2.67000008
   13.78138828  157.83099365    4.90999985    2.67000008
   13.78472233  155.10400391    4.90999985    2.67000008
   13.78805637  158.67399597    4.90999985    2.67000008
   13.79111195  157.20899963    4.90999985    2.67000008
   13.79444504  156.18499756    4.90999985    2.67000008
   13.79527855  153.07099915    4.90999985    2.69000006
   13.79805565  151.13099670    4.90999985    2.69000006
   13.80138874  156.36799622    4.90999985    2.67000008
   13.80472279  160.65699768    4.90999985    2.69000006
   13.81055546  160.65699768    4.90999985    2.67000008
   13.81472206  146.98300171    4.90999985    2.67000008
   13.81777763  159.52400208    4.90999985    2.69000006
   13.82111073  151.63000488    4.90999985    2.69000006
   13.82444477  155.17700195    4.90999985    2.69000006
   13.82750034  157.51800537    4.90999985    2.69000006
   13.82861137  159.74600220    4.90999985    2.69000006
   13.83111095  152.02699280    4.90999985    2.69000006
   13.83444405  154.47700500    4.90999985    2.69000006
   13.83749962  159.67500305    4.90999985    2.69000006
   13.84083271  154.39599609    4.90999985    2.69000006
   13.84416676  161.01600647    4.90999985    2.69000006
   13.84722233  163.44200134    4.90999985    2.69000006
   13.85333347  163.44200134    4.90999985    2.67000008
   13.85750008  157.39300537    4.90999985    2.69000006
   13.86083412  154.71499634    4.90999985    2.69000006
   13.86194515  152.57800293    4.90999985    2.69000006
   13.86416721  157.51400757    4.90999985    2.69000006
   13.86750031  150.17799377    4.90999985    2.69000006
   13.87055588  149.22599792    4.90999985    2.69000006
   13.87388897  155.24099731    4.90999985    2.69000006
   13.87722206  152.26100159    4.90999985    2.69000006
   13.88027763  156.18400574    4.90999985    2.69000006
   13.88361073  149.55599976    4.90999985    2.69000006
   13.88694477  151.02400208    4.90999985    2.69000006
   13.89000034  159.93499756    4.90999985    2.69000006
   13.89611053  159.93499756    4.90999985    2.69000006
   13.90027714  158.68299866    4.90999985    2.71000004
   13.90361118  155.66700745    4.90999985    2.69000006
   13.90694427  157.06100464    4.90999985    2.69000006
   13.90999985  152.41000366    4.90999985    2.71000004
   13.91333294  153.61199951    4.90999985    2.69000006
   13.91666698  150.80599976    4.90999985    2.69000006
   13.91972256  163.89199829    4.90999985    2.69000006
   13.92305565  156.75100708    4.90999985    2.69000006
   13.92638874  160.67999268    4.90999985    2.71000004
   13.92861176  149.86700439    4.90999985    2.69000006
   13.92972279  156.99699402    4.90999985    2.69000006
   13.93305588  157.36000061    4.90999985    2.69000006
   13.93916702  157.36000061    4.90999985    2.69000006
   13.94305515  148.86300659    4.90999985    2.69000006
   13.94638920  155.05099487    4.90999985    2.69000006
   13.94972229  149.90199280    4.90999985    2.69000006
   13.95277786  151.55599976    4.90999985    2.69000006
   13.95611095  145.84199524    4.90999985    2.69000006
   13.95944405  154.55299377    4.90999985    2.69000006
   13.96194458  153.82000732    4.90999985    2.69000006
   13.96277714  153.34300232    4.90999985    2.69000006
   13.96611118  145.69799805    4.90999985    2.71000004
   13.96944427  155.50300598    4.90999985    2.71000004
   13.97249985  143.93299866    4.90999985    2.69000006
   13.97583294  152.61700439    4.90999985    2.71000004
   13.98194408  152.61700439    4.90999985    2.69000006
   13.98611164  158.52900696    4.90999985    2.69000006
   13.98916721  151.44099426    4.90999985    2.69000006
   13.99250031  150.81500244    4.90999985    2.69000006
   13.99527836  152.30099487    4.90999985    2.71000004
   13.99611092  156.53599548    4.90999985    2.71000004
   13.99944496  153.26699829    4.90999985    2.71000004
   14.00277805  156.81599426    4.90999985    2.71000004
   14.00583363  163.47500610    4.90999985    2.71000004
   14.00916672  156.94999695    4.90999985    2.71000004
   14.01222229  154.00100708    4.90999985    2.69000006
   14.01555538  158.14300537    4.90999985    2.69000006
   14.01888847  146.57699585    4.90999985    2.69000006
   14.02472210  146.57699585    4.90999985    2.71000004
   14.02888870  155.21800232    4.90999985    2.71000004
   14.03222179  146.07699585    4.90999985    2.71000004
   14.03527832  149.37399292    4.90999985    2.71000004
   14.03861141  154.95199585    4.90999985    2.71000004
   14.04166698  147.36799622    4.90999985    2.71000004
   14.04500008  154.22099304    4.90999985    2.71000004
   14.04833412  154.58599854    4.90999985    2.71000004
   14.05138874  150.48500061    4.90999985    2.71000004
   14.05472279  155.37500000    4.90999985    2.71000004
   14.05805588  156.30000305    4.90999985    2.71000004
   14.06111145  145.60899353    4.90999985    2.71000004
   14.06194496  157.16099548    4.90999985    2.71000004
   14.06750011  157.16099548    4.90999985    2.71000004
   14.07166672  170.06199646    4.90999985    2.71000004
   14.07499981  154.56199646    4.90999985    2.71000004
   14.07833290  175.57800293    4.90999985    2.71000004
   14.08138847  169.59199524    4.90999985    2.71000004
   14.08472157  151.16400146    4.90999985    2.71000004
   14.08805561  163.18099976    4.90999985    2.71000004
   14.09111118  165.27299500    4.90999985    2.71000004
   14.09444427  160.02400208    4.90999985    2.71000004
   14.09527779  163.66099548    4.90999985    2.71000004
   14.09777737  163.02299500    4.90999985    2.71000004
   14.10111141  167.25300598    4.90999985    2.71000004
   14.10444450  166.45899963    4.90999985    2.71000004
   14.11055565  166.45899963    4.90999985    2.71000004
   14.11472225  169.42399597    4.90999985    2.71000004
   14.11777782  165.68600464    4.90999985    2.71000004
   14.12111092  160.18899536    4.90999985    2.71000004
   14.12416649  159.28700256    4.90999985    2.71000004
   14.12750053  177.76600647    4.90999985    2.71000004
   14.12861156  151.36300659    4.90999985    2.71000004
   14.13111115  166.66999817    4.90999985    2.71000004
   14.13444424  170.08999634    4.90999985    2.71000004
   14.13777733  165.62699890    4.90999985    2.71000004
   14.14083290  146.74000549    4.90999985    2.71000004
   14.14416695  161.96000671    4.90999985    2.71000004
   14.14722252  171.06399536    4.90999985    2.71000004
   14.15333271  171.06399536    4.90999985    2.71000004
   14.15749931  159.98500061    4.90999985    2.71000004
   14.16055489  155.31199646    4.90999985    2.71000004
   14.16194439  170.53799438    4.90999985    2.71000004
   14.16444397  155.83099365    4.90999985    2.71000004
   14.16750050  161.14700317    4.90999985    2.71000004
   14.17083359  162.14799500    4.90999985    2.71000004
   14.17416668  166.72999573    4.90999985    2.71000004
   14.17722225  159.95700073    4.90999985    2.71000004
   14.18055630  155.86099243    4.90999985    2.71000004
   14.18416691  158.59800720    4.90999985    2.71000004
   14.18722248  160.02600098    4.90999985    2.71000004
   14.19055557  160.96299744    4.90999985    2.71000004
   14.19611073  160.96299744    4.90999985    2.71000004
   14.20027733  149.62699890    4.90999985    2.71000004
   14.20361137  141.73800659    4.90999985    2.71000004
   14.20666695  165.27299500    4.90999985    2.71000004
   14.21000004  160.87100220    4.90999985    2.71000004
   14.21333313  156.71000671    4.90999985    2.71000004
   14.21638870  154.15400696    4.90999985    2.71000004
   14.21972179  162.42399597    4.90999985    2.71000004
   14.22277737  157.00500488    4.90999985    2.71000004
   14.22611046  163.37899780    4.90999985    2.71000004
   14.22861099  154.25399780    4.90999985    2.71000004
   14.22972202  167.44700623    4.90999985    2.71000004
   14.23305511  158.57699585    4.90999985    2.71000004
   14.23888874  158.57699585    4.90999985    2.71000004
   14.24305534  156.41600037    4.90999985    2.71000004
   14.24638939  155.76600647    4.90999985    2.71000004
   14.24972248  167.39100647    4.90999985    2.71000004
   14.25277805  152.55400085    4.90999985    2.71000004
   14.25611115  161.01300049    4.90999985    2.71000004
   14.25916672  155.07499695    4.90999985    2.71000004
   14.26194477  158.17199707    4.90999985    2.71000004
   14.26277733  160.78999329    4.90999985    2.71000004
   14.26611137  152.95199585    4.90999985    2.73000002
   14.26944447  159.95799255    4.90999985    2.73000002
   14.27250004  161.76300049    4.90999985    2.71000004
   14.27583313  154.22200012    4.90999985    2.73000002
   14.28194427  154.22200012    4.90999985    2.71000004
   14.28611183  157.12100220    4.90999985    2.71000004
   14.28916740  163.21400452    4.90999985    2.71000004
   14.29250050  158.38999939    4.90999985    2.71000004
   14.29527855  147.77400208    4.90999985    2.73000002
   14.29583359  144.87800598    4.90999985    2.73000002
   14.29916668  147.13900757    4.90999985    2.71000004
   14.30249977  150.55799866    4.90999985    2.71000004
   14.30555534  150.24600220    4.90999985    2.71000004
   14.30888939  152.87399292    4.90999985    2.73000002
   14.31222248  151.00300598    4.90999985    2.73000002
   14.31527805  152.39900208    4.90999985    2.73000002
   14.31861115  157.26199341    4.90999985    2.71000004
   14.32472229  157.26199341    4.90999985    2.71000004
   14.32888889  153.74099731    4.90999985    2.73000002
   14.33194447  155.13900757    4.90999985    2.71000004
   14.33527756  144.72799683    4.90999985    2.71000004
   14.33861065  148.99600220    4.90999985    2.71000004
   14.34166622  152.32299805    4.90999985    2.71000004
   14.34499931  155.96699524    4.90999985    2.71000004
   14.34833336  147.01199341    4.90999985    2.73000002
   14.35138893  157.04200745    4.90999985    2.71000004
   14.35472298  149.11399841    4.90999985    2.71000004
   14.35777855  150.66499329    4.90999985    2.73000002
   14.36111164  145.46400452    4.90999985    2.73000002
   14.36194515  149.32800293    4.90999985    2.71000004
   14.38249969  149.32800293    4.90999985    2.71000004
   14.38666630  149.79400635    4.90999985    2.73000002
   14.39000034  146.87399292    4.90999985    2.73000002
   14.39333344  148.16900635    4.90999985    2.73000002
   14.39527798  150.53300476    4.90999985    2.73000002
   14.39666653  148.58299255    4.90999985    2.73000002
   14.39999962  149.22799683    4.90999985    2.73000002
   14.40333271  149.89799500    4.90999985    2.73000002
   14.40638828  154.26499939    4.90999985    2.73000002
   14.40972137  153.13000488    4.90999985    2.73000002
   14.41305542  154.65699768    4.90999985    2.73000002
   14.41611099  150.56599426    4.90999985    2.73000002
   14.41944504  152.52299500    4.90999985    2.73000002
   14.42527771  152.52299500    4.90999985    2.73000002
   14.42944431  153.88099670    4.90999985    2.73000002
   14.43277836  153.27099609    4.90999985    2.73000002
   14.43583298  152.60400391    4.90999985    2.73000002
   14.43916702  152.69799805    4.90999985    2.73000002
   14.44250011  153.43899536    4.90999985    2.73000002
   14.44555569  148.53700256    4.90999985    2.73000002
   14.44888878  149.72999573    4.90999985    2.73000002
   14.45222187  159.90899658    4.90999985    2.73000002
   14.45527744  153.02600098    4.90999985    2.73000002
   14.45861053  154.29100037    4.90999985    2.73000002
   14.46166611  153.47700500    4.90999985    2.73000002
   14.46222210  150.66099548    4.90999985    2.73000002
   14.46833324  150.66099548    4.90999985    2.73000002
   14.47222137  148.68200684    4.90999985    2.73000002
   14.47555542  146.98699951    4.90999985    2.73000002
   14.47888851  152.62899780    4.90999985    2.73000002
   14.48194408  147.41400146    4.90999985    2.73000002
   14.48527813  151.02799988    4.90999985    2.73000002
   14.48861122  144.61399841    4.90999985    2.73000002
   14.49166679  148.65299988    4.90999985    2.73000002
   14.49499989  148.98199463    4.90999985    2.73000002
   14.49555588  149.96699524    4.90999985    2.73000002
   14.49861145  151.45399475    4.90999985    2.73000002
   14.50194454  145.29499817    4.90999985    2.75000000
   14.50500011  148.41499329    4.90999985    2.73000002
   14.51111126  148.41499329    4.90999985    2.73000002
   14.51527786  146.13900757    4.90999985    2.73000002
   14.51833344  148.52499390    4.90999985    2.73000002
   14.52166653  146.96400452    4.90999985    2.73000002
   14.52499962  152.81900024    4.90999985    2.73000002
   14.52805519  158.81100464    4.90999985    2.73000002
   14.52888870  155.92399597    4.90999985    2.73000002
   14.53166676  152.23199463    4.90999985    2.73000002
   14.53472233  150.30200195    4.90999985    2.73000002
   14.53805637  151.97599792    4.90999985    2.73000002
   14.54138947  142.76800537    4.90999985    2.73000002
   14.54444504  150.74200439    4.90999985    2.73000002
   14.54777813  147.41499329    4.90999985    2.73000002
   14.55388927  147.41499329    4.90999985    2.73000002
   14.55805588  150.68800354    4.90999985    2.73000002
   14.56111145  154.10000610    4.90999985    2.73000002
   14.56222248  151.38400269    4.90999985    2.73000002
   14.56472206  152.50000000    4.90999985    2.73000002
   14.56777763  158.22799683    4.90999985    2.73000002
   14.57111073  159.84300232    4.90999985    2.75000000
   14.57444477  153.68299866    4.90999985    2.75000000
   14.57750034  150.05400085    4.90999985    2.73000002
   14.58083344  155.37100220    4.90999985    2.73000002
   14.58416653  151.75399780    4.90999985    2.73000002
   14.58722210  143.13499451    4.90999985    2.75000000
   14.59055519  151.11099243    4.90999985    2.73000002
   14.59666634  151.11099243    4.90999985    2.73000002
   14.60083389  143.25100708    4.90999985    2.75000000
   14.60416698  146.19099426    4.90999985    2.73000002
   14.60722256  155.11199951    4.90999985    2.73000002
   14.61055565  149.52699280    4.90999985    2.75000000
   14.61388969  146.47999573    4.90999985    2.75000000
   14.61694431  147.83599854    4.90999985    2.75000000
   14.62027836  149.71800232    4.90999985    2.73000002
   14.62333393  150.77600098    4.90999985    2.73000002
   14.62666702  152.92700195    4.90999985    2.73000002
   14.62888908  154.35600281    4.90999985    2.73000002
   14.63027763  156.05400085    4.90999985    2.75000000
   14.63361073  149.22000122    4.90999985    2.73000002
   14.63972187  149.22000122    4.90999985    2.75000000
   14.64361095  149.29299927    4.90999985    2.75000000
   14.64694405  150.50799561    4.90999985    2.75000000
   14.65027714  153.26699829    4.90999985    2.75000000
   14.65333271  147.92799377    4.90999985    2.75000000
   14.65666676  154.58299255    4.90999985    2.73000002
   14.65999985  148.67700195    4.90999985    2.75000000
   14.66222191  150.08200073    4.90999985    2.73000002
   14.66361046  148.86599731    4.90999985    2.75000000
   14.66694450  144.11599731    4.90999985    2.75000000
   14.67000008  142.22599792    4.90999985    2.73000002
   14.67333412  150.86900330    4.90999985    2.75000000
   14.67638874  144.26300049    4.90999985    2.75000000
   14.68249989  144.26300049    4.90999985    2.75000000
   14.68666649  148.49600220    4.90999985    2.75000000
   14.68972206  149.88800049    4.90999985    2.75000000
   14.69305515  148.70700073    4.90999985    2.75000000
   14.69555569  150.20799255    4.90999985    2.75000000
   14.69666672  151.32499695    4.90999985    2.75000000
   14.69999981  148.73800659    4.90999985    2.75000000
   14.70305538  149.27400208    4.90999985    2.75000000
   14.70638847  153.77799988    4.90999985    2.73000002
   14.70972157  142.45700073    4.90999985    2.75000000
   14.71277714  153.32099915    4.90999985    2.75000000
   14.71611118  155.32800293    4.90999985    2.75000000
   14.71944427  151.39999390    4.90999985    2.75000000
   14.72527695  151.39999390    4.90999985    2.75000000
   14.72944355  150.90600586    4.90999985    2.75000000
   14.73277760  148.57600403    4.90999985    2.75000000
   14.73583317  150.62500000    4.90999985    2.75000000
   14.73916721  149.10699463    4.90999985    2.75000000
   14.74222279  150.45199585    4.90999985    2.75000000
   14.74555588  149.88800049    4.90999985    2.75000000
   14.74888897  147.64900208    4.90999985    2.75000000
   14.75194454  154.83200073    4.90999985    2.75000000
   14.75527763  153.54600525    4.90999985    2.75000000
   14.75861073  148.65199280    4.90999985    2.75000000
   14.76166630  149.21899414    4.90999985    2.75000000
   14.76222229  155.97099304    4.90999985    2.75000000
   14.76805496  155.97099304    4.90999985    2.75000000
   14.77222157  155.12500000    4.90999985    2.75000000
   14.77555561  146.45100403    4.90999985    2.75000000
   14.77861118  148.16700745    4.90999985    2.75000000
   14.78194427  146.44000244    4.90999985    2.75000000
   14.78527832  150.78399658    4.90999985    2.75000000
   14.78833389  148.53500366    4.90999985    2.75000000
   14.79166698  156.64100647    4.90999985    2.75000000
   14.79500008  147.43800354    4.90999985    2.75000000
   14.79555607  148.17500305    4.90999985    2.75000000
   14.79833412  151.50199890    4.90999985    2.75000000
   14.80166721  147.38099670    4.90999985    2.75000000
   14.80472279  152.02400208    4.90999985    2.75000000
   14.81111145  152.02400208    4.90999985    2.75000000
   14.81500053  153.67199707    4.90999985    2.75000000
   14.81833363  153.80000305    4.90999985    2.75000000
   14.82166672  152.84399414    4.90999985    2.75000000
   14.82472229  157.19900513    4.90999985    2.75000000
   14.82805538  149.65699768    4.90999985    2.75000000
   14.82888889  150.32499695    4.90999985    2.75000000
   14.83166695  154.72500610    4.90999985    2.75000000
   14.83500004  150.07099915    4.90999985    2.75000000
   14.83805561  153.99800110    4.90999985    2.75000000
   14.84138870  151.21000671    4.90999985    2.75000000
   14.84444427  149.91799927    4.90999985    2.75000000
   14.84777737  151.65899658    4.90999985    2.75000000
   14.85388947  151.65899658    4.90999985    2.75000000
   14.85805607  155.63800049    4.90999985    2.75000000
   14.86111164  155.37300110    4.90999985    2.75000000
   14.86222267  153.28700256    4.90999985    2.75000000
   14.86472225  155.57899475    4.90999985    2.75000000
   14.86805534  153.43800354    4.90999985    2.75000000
   14.87111092  156.13299561    4.90999985    2.75000000
   14.87444496  161.55599976    4.90999985    2.75000000
   14.87777805  170.52999878    4.90999985    2.75000000
   14.88083363  152.86700439    4.90999985    2.75000000
   14.88416672  153.08099365    4.90999985    2.75000000
   14.88722229  157.76600647    4.90999985    2.75000000
   14.89055538  149.81399536    4.90999985    2.75000000
   14.89666653  149.81399536    4.90999985    2.75000000
   14.90083313  146.76800537    4.90999985    2.75000000
   14.90416622  155.63800049    4.90999985    2.75000000
   14.90722179  159.08099365    4.90999985    2.75000000
   14.91055489  150.42399597    4.90999985    2.75000000
   14.91361046  150.75599670    4.90999985    2.76999998
   14.91694450  155.52900696    4.90999985    2.75000000
   14.92027855  161.23800659    4.90999985    2.75000000
   14.92333412  159.55099487    4.90999985    2.75000000
   14.92666721  154.14599609    4.90999985    2.75000000
   14.92888927  169.81799316    4.90999985    2.75000000
   14.93027782  152.65400696    4.90999985    2.75000000
   14.93361092  150.76400757    4.90999985    2.75000000
   14.93944454  150.76400757    4.90999985    2.75000000
   14.94361115  149.88800049    4.90999985    2.75000000
   14.94694424  166.00999451    4.90999985    2.75000000
   14.94999981  151.93699646    4.90999985    2.75000000
   14.95333290  158.49800110    4.90999985    2.75000000
   14.95666695  159.01699829    4.90999985    2.75000000
   14.95972157  159.14399719    4.90999985    2.75000000
   14.96222210  153.83399963    4.90999985    2.75000000
   14.96333313  148.28999329    4.90999985    2.75000000
   14.96666622  150.70899963    4.90999985    2.76999998
   14.96972179  151.01400757    4.90999985    2.75000000
   14.97305489  146.61900330    4.90999985    2.75000000
   14.97638798  153.38000488    4.90999985    2.75000000
   14.98249912  153.38000488    4.90999985    2.75000000
   14.98638916  143.01400757    4.90999985    2.75000000
   14.98972225  146.94700623    4.90999985    2.75000000
   14.99305534  147.62500000    4.90999985    2.75000000
   14.99555588  153.82699585    4.90999985    2.75000000
   14.99666691  168.09700012    4.90999985    2.75000000
   15.00000000  152.74299622    4.90999985    2.75000000
   15.00305557  149.21800232    4.90999985    2.75000000
   15.00638866  153.42399597    4.90999985    2.75000000
   15.00972176  149.53700256    4.90999985    2.75000000
   15.01277733  159.34399414    4.90999985    2.76999998
   15.01611137  147.97099304    4.90999985    2.76999998
   15.01916599  163.19200134    4.90999985    2.75000000
   15.02527714  163.19200134    4.90999985    2.76999998
   15.02944374  155.56199646    4.90999985    2.75000000
   15.03277779  163.82499695    4.90999985    2.76999998
   15.03583336  153.99499512    4.90999985    2.76999998
   15.03916740  149.85200500    4.90999985    2.75000000
   15.04222298  148.97500610    4.90999985    2.75000000
   15.04555607  144.80900574    4.90999985    2.76999998
   15.04888916  143.94900513    4.90999985    2.76999998
   15.05194473  154.66299438    4.90999985    2.76999998
   15.05527782  146.62100220    4.90999985    2.76999998
   15.05861092  149.95300293    4.90999985    2.76999998
   15.06166649  154.19599915    4.90999985    2.75000000
   15.06250000  153.74400330    4.90999985    2.75000000
   15.06805515  153.74400330    4.90999985    2.76999998
   15.07222176  150.45300293    4.90999985    2.76999998
   15.07555580  141.35699463    4.90999985    2.76999998
   15.07861137  141.54499817    4.90999985    2.76999998
   15.08194447  150.64300537    4.90999985    2.76999998
   15.08500004  141.98599243    4.90999985    2.76999998
   15.08833313  150.06700134    4.90999985    2.76999998
   15.09166622  148.72399902    4.90999985    2.75000000
   15.09472179  148.22200012    4.90999985    2.76999998
   15.09583282  148.54800415    4.90999985    2.76999998
   15.09833336  147.14300537    4.90999985    2.76999998
   15.10166740  147.49099731    4.90999985    2.76999998
   15.10472298  148.91200256    4.90999985    2.76999998
   15.11083412  148.91200256    4.90999985    2.76999998
   15.11500072  149.90699768    4.90999985    2.76999998
   15.11833382  158.27699280    4.90999985    2.76999998
   15.12166691  149.21800232    4.90999985    2.76999998
   15.12472248  148.85600281    4.90999985    2.76999998
   15.12805557  147.58799744    4.90999985    2.76999998
   15.12916660  145.38000488    4.90999985    2.76999998
   15.13166714  141.14999390    4.90999985    2.78999996
   15.13500023  157.12899780    4.90999985    2.76999998
   15.13805580  143.00100708    4.90999985    2.76999998
   15.14138889  147.50599670    4.90999985    2.76999998
   15.14472198  145.06700134    4.90999985    2.76999998
   15.14777756  146.78399658    4.90999985    2.76999998
   15.15388870  146.78399658    4.90999985    2.76999998
   15.15805531  144.28900146    4.90999985    2.76999998
   15.16111088  150.92700195    4.90999985    2.75000000
   15.16249943  152.83399963    4.90999985    2.76999998
   15.16472149  145.87899780    4.90999985    2.76999998
   15.16805553  142.17199707    4.90999985    2.76999998
   15.17111111  141.44299316    4.90999985    2.76999998
   15.17444515  148.12199402    4.90999985    2.76999998
   15.17777824  145.93499756    4.90999985    2.76999998
   15.18083382  143.92599487    4.90999985    2.76999998
   15.18416691  142.43299866    4.90999985    2.78999996
   15.18750000  146.85000610    4.90999985    2.76999998
   15.19055557  147.46400452    4.90999985    2.76999998
   15.19666672  147.46400452    4.90999985    2.76999998
   15.20083332  150.44400024    4.90999985    2.76999998
   15.20388889  144.65800476    4.90999985    2.76999998
   15.20722198  153.62500000    4.90999985    2.76999998
   15.21055508  148.59500122    4.90999985    2.76999998
   15.21361065  142.94099426    4.90999985    2.76999998
   15.21694374  149.13800049    4.90999985    2.76999998
   15.22027779  150.84700012    4.90999985    2.78999996
   15.22333336  154.07699585    4.90999985    2.76999998
   15.22666645  146.05099487    4.90999985    2.76999998
   15.22916603  146.16299438    4.90999985    2.76999998
   15.23027706  140.90100098    4.90999985    2.76999998
   15.23361111  146.66299438    4.90999985    2.76999998
   15.23944473  146.66299438    4.90999985    2.76999998
   15.24361134  150.36399841    4.90999985    2.76999998
   15.24694443  152.89399719    4.90999985    2.76999998
   15.25000000  146.22300720    4.90999985    2.76999998
   15.25333309  148.64999390    4.90999985    2.78999996
   15.25638866  152.19599915    4.90999985    2.76999998
   15.25972176  148.33099365    4.90999985    2.76999998
   15.26249981  142.38000488    4.90999985    2.78999996
   15.26333332  143.10800171    4.90999985    2.76999998
   15.26666641  147.10299683    4.90999985    2.76999998
   15.26972198  149.54699707    4.90999985    2.76999998
   15.27305508  144.91400146    4.90999985    2.76999998
   15.27638817  144.31700134    4.90999985    2.76999998
   15.28222179  144.31700134    4.90999985    2.76999998
   15.28638935  152.62800598    4.90999985    2.78999996
   15.28972244  151.00399780    4.90999985    2.78999996
   15.29277802  148.06500244    4.90999985    2.76999998
   15.29583359  148.12600708    4.90999985    2.76999998
   15.29638958  149.06599426    4.90999985    2.78999996
   15.29972267  150.55299377    4.90999985    2.76999998
   15.30277824  145.96099854    4.90999985    2.78999996
   15.30611134  150.96200562    4.90999985    2.76999998
   15.30944443  150.28199768    4.90999985    2.76999998
   15.31250000  153.13200378    4.90999985    2.76999998
   15.31583309  151.00900269    4.90999985    2.76999998
   15.31916618  153.04699707    4.90999985    2.76999998
   15.32527733  153.04699707    4.90999985    2.76999998
   15.32916641  149.32200623    4.90999985    2.76999998
   15.33249950  162.41299438    4.90999985    2.76999998
   15.33583260  147.43899536    4.90999985    2.76999998
   15.33888817  149.15400696    4.90999985    2.76999998
   15.34222221  149.02000427    4.90999985    2.76999998
   15.34555531  147.67199707    4.90999985    2.76999998
   15.34861088  148.03199768    4.90999985    2.78999996
   15.35194492  148.18800354    4.90999985    2.76999998
   15.35500050  150.72300720    4.90999985    2.78999996
   15.35833359  153.06599426    4.90999985    2.78999996
   15.36166668  146.32600403    4.90999985    2.78999996
   15.36250019  151.19400024    4.90999985    2.76999998
   15.36805534  151.19400024    4.90999985    2.78999996
   15.37222195  148.96200562    4.90999985    2.76999998
   15.37527752  153.61199951    4.90999985    2.76999998
   15.37861156  152.39399719    4.90999985    2.76999998
   15.39611053  152.61099243    4.90999985    2.78999996
   15.39861107  153.35499573    4.90999985    2.76999998
   15.40194416  150.51400757    4.90999985    2.76999998
   15.58027744   -1.00000000   -1.00000000   -1.00000000
   15.67805576   -1.00000000   -1.00000000   -1.00000000
   15.90638828   85.95719910    0.61000001    2.73000002
   15.90972137  149.10600281    0.63000000    2.73000002
   15.91305542  140.07499695    0.64999998    2.73000002
   15.91611099  146.03900146    0.64999998    2.73000002
   15.91944504  152.17700195    0.63000000    2.73000002
   15.92277813  152.16600037    0.64999998    2.73000002
   15.92666721  152.16600037    0.70999998    2.73000002
   15.93083382  147.77499390    0.73000002    2.71000004
   15.93416691  145.97900391    0.75000000    2.73000002
   15.93750000  150.31799316    0.79000002    2.73000002
   15.93972206  152.08799744    0.81999999    2.73000002
   15.94083309  150.10200500    0.81999999    2.73000002
   15.94416714  153.39999390    0.86000001    2.73000002
   15.94722271  142.87199402    0.83999997    2.73000002
   15.95055580  146.72200012    0.83999997    2.73000002
   15.95388889  145.08299255    0.81999999    2.73000002
   15.95694447  147.76800537    0.80000001    2.73000002
   15.96027756  153.17999268    0.80000001    2.71000004
   15.96333313  143.32099915    0.81999999    2.73000002
   15.96972179  143.32099915    0.80000001    2.73000002
   15.97388840  155.59300232    0.81999999    2.73000002
   15.97694397  155.14100647    0.83999997    2.73000002
   15.98027706  146.72200012    0.83999997    2.75000000
   15.98333359  140.42700195    0.81999999    2.73000002
   15.98666668  151.14199829    0.83999997    2.73000002
   15.99000072  151.90800476    0.81999999    2.73000002
   15.99305534  145.21299744    0.79000002    2.73000002
   15.99638939  156.94500732    0.79000002    2.73000002
   15.99972248  145.54600525    0.76999998    2.73000002
   16.00277710  146.17399597    0.76999998    2.75000000
   16.00611115  150.44099426    0.76999998    2.73000002
   16.00666618  141.10200500    0.76999998    2.73000002
   16.01250076  141.10200500    0.75000000    2.73000002
   16.01666641  146.74099731    0.75000000    2.73000002
   16.01972198  144.35200500    0.75000000    2.73000002
   16.02305603  149.14199829    0.70999998    2.73000002
   16.02638817  141.17399597    0.69000000    2.73000002
   16.02944374  145.17900085    0.64999998    2.73000002
   16.03277779  138.34199524    0.64999998    2.75000000
   16.03583336  149.07000732    0.64999998    2.73000002
   16.03916550  145.54200745    0.63000000    2.75000000
   16.03999901  144.41400146    0.63000000    2.73000002
   16.04277802  143.34800720    0.63000000    2.75000000
   16.04611015  139.50500488    0.63000000    2.75000000
   16.04944420  146.28300476    0.61000001    2.73000002
   16.05527687  146.28300476    0.61000001    2.73000002
   16.05944443  141.09800720    0.61000001    2.73000002
   16.06277657  143.99800110    0.61000001    2.75000000
   16.06583214  141.03199768    0.63000000    2.73000002
   16.06916809  142.19000244    0.63000000    2.75000000
   16.07222366  142.30499268    0.64999998    2.73000002
   16.07333374  150.44099426    0.64999998    2.73000002
   16.07583427  141.36099243    0.64999998    2.71000004
   16.07916832  133.39900208    0.67000002    2.73000002
   16.08222389  140.75000000    0.67000002    2.73000002
   16.08555603  152.20799255    0.67000002    2.73000002
   16.08889008  147.79299927    0.67000002    2.73000002
   16.09194565  140.09399414    0.64999998    2.75000000
   16.09805679  140.09399414    0.67000002    2.73000002
   16.10222244  142.80200195    0.69000000    2.73000002
   16.10555649  138.12699890    0.69000000    2.73000002
   16.10666656  145.54699707    0.70999998    2.73000002
   16.10888863  146.24600220    0.75000000    2.75000000
   16.11222267  139.87600708    0.70999998    2.73000002
   16.11555672  142.90199280    0.70999998    2.73000002
   16.11861038  145.65199280    0.73000002    2.73000002
   16.12194443  144.15499878    0.73000002    2.73000002
   16.12500000  148.67300415    0.76999998    2.73000002
   16.12833405  147.21099854    0.79000002    2.73000002
   16.13166618  139.83200073    0.80000001    2.73000002
   16.13472176  149.04299927    0.81999999    2.73000002
   16.14111137  149.04299927    0.80000001    2.73000002
   16.14500046  141.98899841    0.75000000    2.73000002
   16.14833260  143.88999939    0.80000001    2.73000002
   16.15166664  137.56300354    0.81999999    2.73000002
   16.15472221  143.07699585    0.83999997    2.73000002
   16.15805435  141.68400574    0.81999999    2.73000002
   16.16138840  139.26899719    0.83999997    2.73000002
   16.16444397  142.53999329    0.88000000    2.73000002
   16.16777802  139.74499512    0.86000001    2.73000002
   16.17083359  141.77499390    0.80000001    2.75000000
   16.17333221  137.11199951    0.80000001    2.73000002
   16.17444420  138.88400269    0.79000002    2.71000004
   16.17777634  143.05900574    0.76999998    2.73000002
   16.18388748  143.05900574    0.70999998    2.73000002
   16.18805504  147.22799683    0.70999998    2.73000002
   16.19111061  145.24400330    0.69000000    2.73000002
   16.19444275  143.25199890    0.73000002    2.73000002
   16.19777679  145.57299805    0.76999998    2.73000002
   16.20083427  147.09100342    0.76999998    2.73000002
   16.20416832  144.35800171    0.80000001    2.71000004
   16.20666695  141.82800293    0.80000001    2.73000002
   16.20777893  143.58900452    0.80000001    2.73000002
   16.21111107  140.71800232    0.81999999    2.73000002
   16.21444511  142.47799683    0.81999999    2.73000002
   16.21750069  138.70300293    0.83999997    2.73000002
   16.22083473  142.76600647    0.88000000    2.73000002
   16.22666740  142.76600647    0.86000001    2.73000002
   16.23083305  139.66000366    0.86000001    2.71000004
   16.23416710  138.45300293    0.83999997    2.73000002
   16.23750114  145.39799500    0.81999999    2.73000002
   16.23999977  142.10699463    0.80000001    2.73000002
   16.24083328  143.48199463    0.80000001    2.73000002
   16.24416733  137.79100037    0.79000002    2.73000002
   16.24749947  138.97300720    0.80000001    2.73000002
   16.25055504  139.11300659    0.76999998    2.73000002
   16.25388908  144.75000000    0.75000000    2.73000002
   16.25694466  143.55799866    0.76999998    2.73000002
   16.26027870  147.03799438    0.75000000    2.75000000
   16.26361084  146.12899780    0.75000000    2.73000002
   16.26944351  146.12899780    0.70999998    2.75000000
   16.27361107  146.67700195    0.70999998    2.73000002
   16.27694511  149.82099915    0.70999998    2.73000002
   16.28027725  150.81900024    0.73000002    2.73000002
   16.28333282  146.61799622    0.73000002    2.73000002
   16.28666687  140.92900085    0.76999998    2.73000002
   16.28972244  146.99800110    0.79000002    2.73000002
   16.29305458  148.60099792    0.79000002    2.73000002
   16.29638863  146.30499268    0.79000002    2.73000002
   16.29944420  153.99600220    0.79000002    2.73000002
   16.30277634  144.04600525    0.80000001    2.73000002
   16.30611038  152.26100159    0.81999999    2.73000002
   16.30666542  140.22999573    0.81999999    2.73000002
   16.31250000  140.22999573    0.83999997    2.71000004
   16.31666756  146.20300293    0.83999997    2.73000002
   16.31972313  140.54800415    0.83999997    2.73000002
   16.32305717  143.53300476    0.86000001    2.75000000
   16.32611275  141.57000732    0.86000001    2.73000002
   16.32944489  140.43400574    0.81999999    2.73000002
   16.33277893  140.39300537    0.81999999    2.73000002
   16.33583450  140.41299438    0.83999997    2.73000002
   16.33916664  147.09500122    0.81999999    2.73000002
   16.34000015  143.44000244    0.81999999    2.73000002
   16.34250069  146.80400085    0.80000001    2.73000002
   16.34583473  142.28500366    0.80000001    2.73000002
   16.34916687  145.67799377    0.80000001    2.75000000
   16.35527802  145.67799377    0.80000001    2.73000002
   16.35944557  143.17900085    0.81999999    2.73000002
   16.36250114  140.18699646    0.83999997    2.73000002
   16.36583328  138.78199768    0.83999997    2.73000002
   16.36916733  141.69799805    0.88000000    2.73000002
   16.37222290  146.36700439    0.89999998    2.73000002
   16.37333298  146.92999268    0.89999998    2.73000002
   16.37583351  141.33700562    0.94000000    2.73000002
   16.37916756  145.71099854    0.94000000    2.73000002
   16.38249969  147.84399414    0.94000000    2.73000002
   16.38555527  143.91799927    0.94000000    2.73000002
   16.38888931  144.63499451    0.92000002    2.73000002
   16.39222145  148.32499695    0.88000000    2.73000002
   16.39805603  148.32499695    0.80000001    2.73000002
   16.40222168  141.43800354    0.80000001    2.73000002
   16.40555573  142.75100708    0.80000001    2.73000002
   16.40666580  136.45899963    0.80000001    2.73000002
   16.40888786  144.00999451    0.80000001    2.73000002
   16.41222191  144.64399719    0.80000001    2.73000002
   16.41555595  138.98699951    0.81999999    2.73000002
   16.41860962  135.75399780    0.81999999    2.73000002
   16.42194366  141.25999451    0.81999999    2.73000002
   16.42527771  146.83299255    0.83999997    2.73000002
   16.42833328  139.58399963    0.83999997    2.75000000
   16.43166542  141.28300476    0.83999997    2.73000002
   16.43472099  140.70199585    0.81999999    2.73000002
   16.44083214  140.70199585    0.80000001    2.73000002
   16.44499969  139.71000671    0.79000002    2.73000002
   16.44833183  141.32400513    0.79000002    2.73000002
   16.45166779  138.02099609    0.76999998    2.73000002
   16.45472336  139.34899902    0.76999998    2.73000002
   16.45805550  143.00000000    0.76999998    2.75000000
   16.46111107  143.81500244    0.76999998    2.73000002
   16.46444511  136.23899841    0.75000000    2.75000000
   16.46777916  138.89900208    0.75000000    2.73000002
   16.47083473  141.95700073    0.75000000    2.75000000
   16.47333336  141.08999634    0.75000000    2.73000002
   16.47444534  141.87300110    0.75000000    2.73000002
   16.47777748  140.32000732    0.76999998    2.71000004
   16.48388863  140.32000732    0.75000000    2.73000002
   16.48805618  137.98100281    0.76999998    2.73000002
   16.49111176  145.91200256    0.75000000    2.73000002
   16.49444389  143.49800110    0.79000002    2.73000002
   16.49749947  149.55999756    0.76999998    2.73000002
   16.50083351  147.42300415    0.76999998    2.73000002
   16.50416756  141.62800598    0.73000002    2.75000000
   16.50666618  141.92199707    0.73000002    2.75000000
   16.50749969  145.18600464    0.73000002    2.75000000
   16.51083374  142.32800293    0.73000002    2.75000000
   16.51416588  139.73100281    0.70999998    2.73000002
   16.51722145  138.99800110    0.70999998    2.73000002
   16.52055550  135.16000366    0.69000000    2.73000002
   16.52666664  135.16000366    0.70999998    2.73000002
   16.53083229  140.14900208    0.70999998    2.73000002
   16.53388786  144.67599487    0.70999998    2.73000002
   16.53722191  145.23199463    0.73000002    2.75000000
   16.53999901  141.22900391    0.75000000    2.75000000
   16.54083252  142.28700256    0.75000000    2.75000000
   16.54416656  145.40699768    0.75000000    2.73000002
   16.54749870  139.56900024    0.75000000    2.73000002
   16.55055428  139.07600403    0.75000000    2.75000000
   16.55388832  139.21899414    0.75000000    2.73000002
   16.55722237  144.41700745    0.75000000    2.73000002
   16.56027794  144.85499573    0.75000000    2.73000002
   16.56361008  137.86700439    0.73000002    2.75000000
   16.56944466  137.86700439    0.70999998    2.75000000
   16.57361221  142.41299438    0.67000002    2.73000002
   16.57694626  140.11399841    0.67000002    2.73000002
   16.58000183  134.61599731    0.67000002    2.73000002
   16.58333397  140.08500671    0.67000002    2.73000002
   16.58666801  135.70899963    0.70999998    2.75000000
   16.58972359  138.63000488    0.75000000    2.75000000
   16.59305573  136.55299377    0.79000002    2.75000000
   16.59638977  133.63800049    0.79000002    2.75000000
   16.59944534  138.71200562    0.76999998    2.73000002
   16.60277748  138.15100098    0.70999998    2.73000002
   16.60583305  139.59300232    0.64999998    2.73000002
   16.60666656  136.49800110    0.67000002    2.75000000
   16.61222267  136.49800110    0.69000000    2.73000002
   16.61638832  138.75000000    0.69000000    2.73000002
   16.61972237  138.58399963    0.64999998    2.73000002
   16.62305641  138.62100220    0.63000000    2.73000002
   16.62611198  139.42700195    0.69000000    2.73000002
   16.62944412  137.54899597    0.69000000    2.73000002
   16.63249969  141.40499878    0.69000000    2.73000002
   16.63583374  147.02799988    0.67000002    2.75000000
   16.63916588  139.25199890    0.69000000    2.73000002
   16.63999939  145.13099670    0.69000000    2.73000002
   16.64277840  140.54100037    0.69000000    2.73000002
   16.64583397  142.12800598    0.67000002    2.73000002
   16.64916611  138.53100586    0.69000000    2.73000002
   16.65527725  138.53100586    0.69000000    2.75000000
   16.65944481  142.47399902    0.70999998    2.73000002
   16.66250038  142.54800415    0.73000002    2.73000002
   16.66583252  148.99000549    0.70999998    2.73000002
   16.66916656  140.19200134    0.75000000    2.75000000
   16.67222214  144.82200623    0.70999998    2.75000000
   16.67333221  134.65800476    0.70999998    2.75000000
   16.67611122  135.19000244    0.69000000    2.73000002
   16.67916679  133.04499817    0.67000002    2.75000000
   16.68249893  141.41400146    0.67000002    2.75000000
   16.68583298  140.57499695    0.61000001    2.73000002
   16.68888855  148.49499512    0.61000001    2.73000002
   16.69222069  136.15600586    0.61000001    2.73000002
   16.69805527  136.15600586    0.64999998    2.73000002
   16.70222282  142.62600708    0.69000000    2.73000002
   16.70555687  139.64599609    0.69000000    2.73000002
   16.70666695  140.25700378    0.70999998    2.73000002
   16.70916748  142.79499817    0.73000002    2.73000002
   16.71222305  140.25999451    0.70999998    2.73000002
   16.71555710  140.27699280    0.70999998    2.73000002
   16.71861076  141.98199463    0.70999998    2.73000002
   16.72194481  138.24499512    0.70999998    2.73000002
   16.72527885  143.77499390    0.70999998    2.73000002
   16.72833443  141.32099915    0.69000000    2.73000002
   16.73166656  137.58999634    0.73000002    2.73000002
   16.73500061  143.84500122    0.75000000    2.73000002
   16.74083328  143.84500122    0.80000001    2.71000004
   16.74500084  142.17799377    0.81999999    2.73000002
   16.74833298  136.96800232    0.80000001    2.73000002
   16.75138855  143.51300049    0.79000002    2.73000002
   16.75472260  136.63099670    0.73000002    2.71000004
   16.75805473  137.55400085    0.70999998    2.71000004
   16.76111031  139.10400391    0.75000000    2.71000004
   16.76444435  146.69000244    0.80000001    2.71000004
   16.76777840  146.74499512    0.94000000    2.71000004
   16.77083397  141.21000671    1.46000004    2.71000004
   16.77333260  143.32800293    1.50000000    2.71000004
   16.77472115  150.10699463    1.50000000    2.71000004
   16.77777672  146.08500671    1.30999994    2.71000004
   16.78361130  146.08500671    1.23000002    2.69000006
   16.78777695  136.47300720    1.14999998    2.71000004
   16.79111099  139.29699707    1.50000000    2.69000006
   16.79444313  140.13099670    1.38000000    2.69000006
   16.79749870  141.84599304    1.46000004    2.67000008
   16.80083275  139.32000732    2.36999989    2.57999992
   16.80416679  147.07600403    2.66000009    2.55999994
   16.80666542  141.36700439    3.18000007    2.28999996
   16.80777740  137.89599609    3.73000002    2.19000006
   16.81083298  145.33299255    4.00000000    1.88000000
   16.81416512  150.45100403    3.43000007    1.58000004
   16.81722260  140.50500488    2.57999992    1.23000002
   16.82055664  141.13600159    1.58000004    0.83999997
   16.82666779  141.13600159    0.88000000    0.23000000
   16.83083344  136.72000122    0.88000000    0.05000000
   16.83388901  141.04100037    0.89999998    0.01000000
   16.83722305  141.83599854    0.92000002    0.01000000
   16.84000015  140.07800293    0.92000002    0.01000000
   16.84083366  145.39100647    0.92000002    0.01000000
   16.84416771  143.21899414    0.92000002    0.01000000
   16.84722328  139.94299316    0.92000002    0.01000000
   16.85055542  138.71499634    0.92000002    0.01000000
   16.85361099  141.52499390    0.92000002    0.01000000
   16.85694504  146.64700317    0.92000002    0.01000000
   16.86027908  120.12599945    0.92000002    0.01000000
   16.86333466  144.43200684    0.92000002    0.01000000
   16.86944389  144.43200684    0.92000002    0.01000000
   16.87361145  143.27999878    0.92000002    0.01000000
   16.87694550  138.91400146    0.92000002    0.01000000
   16.88000107  134.86900330    0.92000002    0.01000000
   16.88333321  138.72999573    0.92000002    0.01000000
   16.88638878  142.36700439    0.92000002    0.01000000
   16.88972282  139.22399902    0.92000002    0.01000000
   16.89305496  141.23100281    1.75000000    2.73000002
   16.89611053  137.87300110    2.00000000    2.71000004
   16.89944458  138.66499329    1.96000004    2.71000004
   16.90277672  140.69400024    2.59999990    2.71000004
   16.90583229  144.22399902    2.86999989    2.73000002
   16.90666580  142.77099609    2.89000010    2.71000004
   16.92722130  142.77099609    2.32999992    2.71000004
   16.93138885  142.73699951    1.75000000    2.71000004
   16.93472099  140.59300232    1.73000002    2.71000004
   16.93777657  139.41600037    1.78999996    2.73000002
   16.93999863  138.87699890    2.01999998    2.71000004
   16.94166565  139.72500610    1.85000002    2.71000004
   16.94499969  135.90199280    1.83000004    2.71000004
   16.94805527  142.79400635    1.60000002    2.71000004
   16.95138931  143.15299988    1.94000006    2.71000004
   16.95472336  140.47200012    1.75000000    2.73000002
   16.95777893  135.09599304    1.66999996    2.73000002
   16.96111107  142.55299377    1.85000002    2.71000004
   16.96416664  137.96699524    1.76999998    2.71000004
   16.97000122  137.96699524    1.60000002    2.71000004
   16.97416687  136.43299866    1.46000004    2.73000002
   16.97750092  133.82699585    1.41999996    2.71000004
   16.98055649  137.69099426    1.36000001    2.73000002
   16.98388863  136.62800598    1.36000001    2.73000002
   16.98694420  141.30400085    1.30999994    2.73000002
   16.99027824  140.72000122    1.23000002    2.73000002
   16.99361229  140.03300476    1.21000004    2.73000002
   16.99666786  136.99000549    1.21000004    2.73000002
   17.00000000  134.70500183    1.41999996    2.73000002
   17.00333405  139.13999939    1.64999998    2.73000002
   17.00638962  140.38600159    1.89999998    2.71000004
   17.00694466  137.49800110    1.98000002    2.73000002
   17.01277733  137.49800110    1.71000004    2.71000004
   17.01694489  138.41299438    2.00000000    2.71000004
   17.02027702  141.53700256    1.69000006    2.73000002
   17.02333260  136.83299255    1.55999994    2.73000002
   17.02666664  136.76199341    1.89999998    2.73000002
   17.03000069  137.76499939    1.19000006    2.73000002
   17.03305435  140.60499573    1.46000004    2.73000002
   17.03638840  132.22399902    2.03999996    2.71000004
   17.03972244  136.85699463    1.60000002    2.73000002
   17.04027748  135.86199951    1.50000000    2.73000002
   17.04333305  133.77299500    1.53999996    2.73000002
   17.04638863  139.08500671    2.55999994    2.73000002
   17.04972076  138.48500061    2.17000008    2.73000002
   17.05555534  138.48500061    1.63000000    2.73000002
   17.05972099  134.94500732    1.46000004    2.73000002
   17.06305504  136.33500671    1.39999998    2.73000002
   17.06638718  137.92700195    1.28999996    2.73000002
   17.06944466  141.53500366    1.51999998    2.71000004
   17.07277870  139.31300354    1.09000003    2.73000002
   17.07361221  138.14599609    1.03999996    2.73000002
   17.07638931  136.08099365    0.89999998    2.73000002
   17.07944489  140.45399475    1.30999994    2.73000002
   17.08277893  139.26400757    1.13000000    2.73000002
   17.08611107  140.00399780    1.16999996    2.73000002
   17.08916664  136.74299622    1.13000000    2.73000002
   17.09250069  134.75500488    1.41999996    2.73000002
   17.09861183  134.75500488    1.69000006    2.73000002
   17.10277748  138.50199890    1.36000001    2.73000002
   17.10583305  139.11199951    1.21000004    2.73000002
   17.10694504  138.49499512    1.26999998    2.73000002
   17.10972214  143.56599426    1.13000000    2.73000002
   17.11277771  138.70799255    1.13000000    2.73000002
   17.11611176  139.49699402    1.00000000    2.73000002
   17.11916733  142.05200195    1.03999996    2.73000002
   17.12249947  139.63299561    1.14999998    2.73000002
   17.12583351  137.59500122    1.30999994    2.71000004
   17.12888908  140.27600098    1.44000006    2.73000002
   17.13222313  133.70100403    1.28999996    2.73000002
   17.13555527  137.83399963    1.28999996    2.73000002
   17.14138794  137.83399963    1.26999998    2.73000002
   17.14555550  140.78900146    1.51999998    2.71000004
   17.14888954  144.24200439    1.64999998    2.71000004
   17.15194321  139.71400452    1.48000002    2.71000004
   17.15527725  138.66799927    1.44000006    2.71000004
   17.15833282  136.50300598    1.46000004    2.71000004
   17.16166687  133.80599976    2.11999989    2.71000004
   17.16499901  132.28199768    2.30999994    2.71000004
   17.16805458  132.80400085    1.76999998    2.73000002
   17.17138863  143.21000671    1.88000000    2.71000004
   17.17361069  140.95500183    2.11999989    2.73000002
   17.17499924  136.54100037    2.25000000    2.73000002
   17.17805481  140.62899780    2.15000010    2.73000002
   17.18416595  140.62899780    2.11999989    2.71000004
   17.18833160  138.71899414    1.64999998    2.71000004
   17.19166565  133.13499451    1.44000006    2.71000004
   17.19472122  134.72399902    1.23000002    2.73000002
   17.19805527  137.82200623    1.33000004    2.73000002
   17.20138931  138.97000122    1.38000000    2.73000002
   17.20444489  137.55900574    1.64999998    2.71000004
   17.20694542  139.79600525    1.75000000    2.73000002
   17.20833397  140.93600464    1.76999998    2.71000004
   17.21138954  139.25700378    1.89999998    2.71000004
   17.21472359  139.91000366    1.75000000    2.71000004
   17.21777916  140.15499878    1.83000004    2.69000006
   17.22111130  136.64300537    1.85000002    2.71000004
   17.22694588  136.64300537    1.66999996    2.71000004
   17.23111153  135.46400452    1.73000002    2.71000004
   17.23444557  134.94799805    1.66999996    2.71000004
   17.23777771  143.45199585    1.80999994    2.71000004
   17.24027824  137.25500488    1.76999998    2.73000002
   17.24138832  139.24800110    1.50000000    2.71000004
   17.24444389  134.94500732    1.44000006    2.73000002
   17.24777794  140.85200500    1.66999996    2.73000002
   17.25111198  141.32899475    1.48000002    2.73000002
   17.25416756  137.74400330    1.38000000    2.73000002
   17.25749969  145.64500427    1.66999996    2.73000002
   17.26055527  135.69099426    2.19000006    2.71000004
   17.26388931  137.41700745    2.00000000    2.73000002
   17.27000046  137.41700745    2.39000010    2.69000006
   17.27416611  139.46499634    3.01999998    2.71000004
   17.27722168  147.12500000    3.53999996    2.71000004
   17.28055573  143.83200073    3.95000005    2.67000008
   17.28388786  138.03300476    2.94000006    2.69000006
   17.28694344  140.78199768    3.07999992    2.71000004
   17.29027748  134.02099609    1.86000001    2.71000004
   17.29333305  140.96299744    1.83000004    2.71000004
   17.29666710  139.02200317    1.96000004    2.71000004
   17.29999924  138.41000366    1.48000002    2.73000002
   17.30305481  137.74200439    1.00000000    2.73000002
   17.30638885  140.32699585    1.53999996    2.73000002
   17.30694389  137.67399597    1.60000002    2.71000004
   17.31277657  137.67399597    1.75000000    2.71000004
   17.31694603  144.00199890    1.88000000    2.71000004
   17.32027817  135.96899414    1.39999998    2.73000002
   17.32333374  141.71800232    2.32999992    1.16999996
   17.32666779  147.68600464    3.21000004    0.83999997
   17.32972336  137.79499817    2.25000000    0.56999999
   17.33305550  138.83000183    1.75000000    0.25999999
   17.33638954  139.32499695    2.00000000    0.13000000
   17.33944511  143.94700623    2.51999998    0.03000000
   17.34027863  145.32000732    2.73000002    0.03000000
   17.34305573  143.57400513    3.55999994    0.01000000
   17.34611130  150.38299561    4.42999983    0.01000000
   17.34944534  138.88900757    4.73999977    0.01000000
   17.35555649  138.88900757    4.73999977    0.01000000
   17.35972214  143.28399658    4.73999977    0.01000000
   17.36305618  139.65299988    4.73999977    0.01000000
   17.36611176  137.72399902    4.73999977    0.01000000
   17.36944389  141.15499878    4.73999977    0.01000000
   17.37277794  137.21000671    4.73999977    0.01000000
   17.37361145  141.06100464    4.73999977    0.01000000
   17.37638855  136.61399841    4.73999977    0.01000000
   17.37944412  138.45799255    4.73999977    0.01000000
   17.38277817  140.36900330    4.73999977    0.01000000
   17.38611031  138.93400574    4.73999977    0.01000000
   17.38916588  142.52900696    4.73999977    0.01000000
   17.39249992  141.13400269    4.73999977    0.01000000
   17.39833260  141.13400269    4.73999977    0.01000000
   17.40250015  140.65299988    4.73999977    0.01000000
   17.40583229  142.92100525    4.73999977    0.01000000
   17.40694427  140.30099487    4.73999977    0.01000000
   17.40944481  139.01300049    4.73999977    0.01000000
   17.41250038  143.47399902    4.73999977    0.01000000
   17.41583252  135.72599792    3.43000007    0.01000000
   17.41916656  139.38000488    1.61000001    2.71000004
   17.42222214  137.96499634    1.53999996    2.73000002
   17.42555428  138.72200012    1.75000000    2.71000004
   17.42888832  130.78700256    1.50000000    2.71000004
   17.43194389  134.17700195    1.46000004    2.69000006
   17.43527603  140.02900696    1.44000006    2.71000004
   17.44138718  140.02900696    2.05999994    2.69000006
   17.44555473  147.35299683    2.55999994    2.69000006
   17.44861031  144.94900513    2.71000004    2.69000006
   17.45194435  145.28900146    3.03999996    2.69000006
   17.45527840  153.88999939    2.73000002    2.69000006
   17.45833397  147.02299500    2.91000009    2.69000006
   17.46166801  151.84599304    2.98000002    2.69000006
   17.46472359  156.42500305    2.80999994    2.71000004
   17.46805573  159.88000488    2.98000002    2.71000004
   17.47138977  171.45899963    3.84999990    2.69000006
   17.47361183  151.88299561    3.59999990    2.69000006
   17.47500038  147.92999268    3.25000000    2.69000006
   17.47805595  145.71299744    3.03999996    2.71000004
   17.48416710  145.71299744    4.90999985    2.64000010
   17.48833275  162.20700073    4.09999990    2.69000006
   17.49166679  155.62899780    3.50000000    2.69000006
   17.49472237  155.86799622    3.07999992    2.71000004
   17.49805641  161.80099487    2.76999998    2.69000006
   17.50111198  160.55099487    3.97000003    2.69000006
   17.50444412  172.98800659    4.90999985    2.55999994
   17.50694466  182.49299622    4.90999985    2.69000006
   17.50805473  170.53900146    4.90999985    2.66000009
   17.51111031  194.97700500    4.90999985    2.64000010
   17.51444435  143.52999878    4.90999985    2.69000006
   17.51777840  171.50500488    4.69999981    2.69000006
   17.52083397  185.56300354    4.90999985    2.71000004
   17.52694511  185.56300354    4.90999985    2.55999994
   17.53111076  150.05599976    4.90999985    2.66000009
   17.53444481  171.79499817    4.11999989    2.69000006
   17.53750038  195.39599609    3.23000002    2.69000006
   17.54027748  173.09300232    3.28999996    2.69000006
   17.54138756  197.73100281    3.25000000    2.69000006
   17.54444313  192.84199524    3.28999996    2.69000006
   17.54777718  165.19500732    3.01999998    2.69000006
   17.55111122  155.12699890    2.98000002    2.69000006
   17.55416679  168.48500061    2.75000000    2.69000006
   17.55749893  159.94599915    2.48000002    2.71000004
   17.56083298  160.76400757    2.61999989    2.71000004
   17.56388855  180.32600403    2.15000010    2.71000004
   17.57000160  180.32600403    1.86000001    2.71000004
   17.57389069  188.25100708    2.36999989    2.71000004
   17.57722282  171.82000732    2.50000000    2.71000004
   17.58055687  197.75100708    2.66000009    2.69000006
   17.58361244  168.48300171    2.64000010    2.71000004
   17.58694458  198.54699707    3.39000010    2.69000006
   17.59027863  209.99600220    3.00000000    2.69000006
   17.59333420  198.32499695    3.00000000    2.69000006
   17.59666824  160.81599426    2.46000004    2.71000004
   17.59972191  195.58200073    2.11999989    2.71000004
   17.60305595  203.94599915    2.21000004    2.71000004
   17.60639000  159.07299805    2.50000000    2.71000004
   17.60694504  170.35299683    2.50000000    2.71000004
   17.61277771  170.35299683    0.23000000    0.70999998
   17.61694527  213.73599243    0.07000000    0.25999999
   17.62000084  187.78500366    0.07000000    0.25999999
   17.62333298  193.70500183    0.09000000    0.25999999
   17.62666702  215.14599609    0.09000000    0.34000000
   17.62972260  179.95700073    0.19000000    0.61000001
   17.63305473  186.15199280    0.58999997    1.14999998
   17.63638878  198.43200684    4.90999985    2.75000000
   17.63944435  187.42599487    4.03999996    2.71000004
   17.64027786  201.45300293    4.26999998    2.71000004
   17.64305496  199.17300415    3.99000001    2.71000004
   17.64638901  201.19700623    2.84999990    2.73000002
   17.64944458  204.25599670    2.98000002    2.71000004
   17.65555573  204.25599670    2.59999990    2.69000006
   17.65972137  210.03399658    2.53999996    2.71000004
   17.66277695  200.59500122    2.78999996    2.69000006
   17.66611099  209.87800598    2.98000002    2.69000006
   17.66944313  195.40100098    2.96000004    2.71000004
   17.67249870  187.89700317    3.16000009    2.69000006
   17.67361069  189.58399963    3.16000009    2.71000004
   17.67611122  196.88400269    3.36999989    2.69000006
   17.67944336  214.68600464    4.57999992    2.73000002
   17.68249893  195.16400146    3.43000007    2.73000002
   17.68583298  199.86099243    3.00000000    2.71000004
   17.68888855  202.37699890    2.80999994    2.71000004
   17.69222069  192.55099487    3.09999990    2.71000004
   17.69833183  192.55099487    3.11999989    2.71000004
   17.70250130  178.14100647    2.71000004    2.71000004
   17.70583344  138.45799255    3.80999994    2.71000004
   17.70694542  178.02299500    4.23999977    2.66000009
   17.70944595  198.95300293    4.90999985    2.69000006
   17.71277809  176.57099915    4.90999985    2.66000009
   17.71583366  193.61700439    4.90999985    2.64000010
   17.71916771  212.82699585    4.90999985    2.50000000
   17.72249985  192.62699890    4.90999985    2.50000000
   17.72555542  197.10800171    4.90999985    2.57999992
   17.72888947  174.48399353    4.78000021    2.71000004
   17.73194504  194.19500732    3.41000009    2.69000006
   17.73527718  169.67799377    3.59999990    2.71000004
   17.74111176  169.67799377    2.96000004    2.71000004
   17.74527740  168.48399353    2.23000002    2.71000004
   17.74861145  172.17599487    2.05999994    2.71000004
   17.75194359  167.79899597    2.21000004    2.71000004
   17.75499916  169.06900024    2.40000010    2.71000004
   17.75833321  159.80599976    2.55999994    2.71000004
   17.76166725  172.02699280    3.21000004    2.71000004
   17.76472282  158.16700745    2.15000010    2.71000004
   17.76805496  151.66700745    1.91999996    2.71000004
   17.77111053  162.82499695    1.64999998    2.71000004
   17.77361107  154.30299377    1.51999998    2.71000004
   17.77472115  154.74299622    1.55999994    2.71000004
   17.77805519  160.54499817    1.63000000    2.71000004
   17.78416634  160.54499817    2.34999990    2.71000004
   17.78833199  148.73100281    2.25000000    2.71000004
   17.79138756  171.50799561    2.25000000    2.71000004
   17.79472160  155.94700623    2.03999996    2.71000004
   17.79805565  158.19400024    2.23000002    2.71000004
   17.80111122  132.02799988    1.50000000    2.73000002
   17.80444336  160.10200500    2.75000000    2.71000004
   17.80694389  163.10800171    2.11999989    2.71000004
   17.80805397  141.49000549    1.76999998    2.71000004
   17.81138802  151.43400574    1.21000004    2.73000002
   17.81444359  145.42100525    2.34999990    2.71000004
   17.81777954  147.54400635    2.82999992    2.71000004
   17.82083511  148.79699707    3.30999994    2.69000006
   17.82694626  148.79699707    4.21999979    2.69000006
   17.83111191  148.59899902    1.96000004    2.71000004
   17.83444595  142.86799622    2.42000008    2.71000004
   17.83750153  146.50799561    2.50000000    2.71000004
   17.84027863  144.26400757    2.00000000    2.71000004
   17.84111214  148.55499268    1.98000002    2.71000004
   17.84444427  154.49800110    2.50000000    2.71000004
   17.84749985  137.51400757    1.96000004    2.71000004
   17.85083389  139.91999817    2.48000002    2.69000006
   17.85388947  139.72900391    1.71000004    2.71000004
   17.85722351  145.05200195    1.64999998    2.71000004
   17.86055565  149.42100525    1.75000000    2.71000004
   17.86361122  145.62600708    1.58000004    2.71000004
   17.86972237  145.62600708    1.28999996    2.71000004
   17.87388992  141.36399841    1.39999998    2.71000004
   17.87722206  141.61099243    1.38000000    2.69000006
   17.88027763  135.79299927    1.58000004    2.69000006
   17.88361168  136.41600037    1.34000003    2.69000006
   17.88666725  135.06700134    1.30999994    2.69000006
   17.88999939  135.46299744    1.64999998    2.69000006
   17.89333344  138.01199341    1.69000006    2.67000008
   17.89638901  139.85800171    1.63000000    2.69000006
   17.89972115  134.05999756    1.55999994    2.69000006
   17.90305519  143.10699463    1.80999994    2.69000006
   17.90611076  137.70599365    1.69000006    2.67000008
   17.90694427  138.61999512    1.83000004    2.67000008
   17.91250038  138.61999512    1.69000006    2.69000006
   17.91666603  133.95300293    1.69000006    2.69000006
   17.92000008  141.14500427    1.69000006    2.69000006
   17.92333221  132.17900085    1.69000006    2.69000006
   17.94083214  137.75100708    1.69000006    2.69000006
   17.94305420  135.84800720    1.69000006    2.69000006
   17.94638824  138.68800354    1.69000006    2.69000006
   17.94944382  141.45199585    1.69000006    2.69000006
   17.95555687  141.45199585    1.69000006    2.69000006
   17.95972252  137.02000427    1.69000006    2.69000006
   17.96305656  139.58599854    1.69000006    2.69000006
   17.96611214  139.05499268    1.69000006    2.69000006
   17.96944427  134.57899475    1.69000006    2.69000006
   17.97277832  134.66299438    1.69000006    2.69000006
   17.97389030  133.30200195    1.69000006    2.69000006
   17.97611237  130.08799744    1.69000006    2.69000006
   17.97944450  135.95599365    1.69000006    2.69000006
   17.98250008  135.56900024    1.69000006    2.69000006
   17.98583412  133.42399597    1.69000006    2.69000006
   17.98916626  138.19099426    1.69000006    2.69000006
   17.99222183  132.64700317    1.69000006    2.69000006
   17.99833298  132.64700317    1.69000006    2.69000006
   18.00250053  134.88299561    1.69000006    2.69000006
   18.00583267  136.37899780    1.69000006    2.69000006
   18.00722313  139.74499512    1.69000006    2.69000006
   18.00944519  135.83900452    1.69000006    2.69000006
   18.01277733  137.80900574    1.69000006    2.69000006
   18.01583290  138.57299805    1.69000006    2.69000006
   18.01916695  140.62100220    1.69000006    2.69000006
   18.02249908  135.18299866    1.69000006    2.69000006
   18.02555466  136.00799561    1.69000006    2.69000006
   18.02888870  140.84300232    1.69000006    2.69000006
   18.03194427  140.80200195    1.69000006    2.69000006
   18.03527641  138.40699768    1.69000006    2.69000006
   18.04138756  138.40699768    1.69000006    2.69000006
   18.04555511  138.16900635    1.69000006    2.69000006
   18.04861069  140.78199768    1.69000006    2.69000006
   18.05194283  134.68299866    1.69000006    2.69000006
   18.05499840  137.03799438    1.69000006    2.69000006
   18.05833244  133.66299438    1.69000006    2.69000006
   18.06166649  135.81399536    1.69000006    2.69000006
   18.06472206  134.54800415    1.69000006    2.69000006
   18.06805611  139.27200317    1.69000006    2.69000006
   18.07139015  136.82200623    1.69000006    2.69000006
   18.07416725  134.72799683    1.69000006    2.69000006
   18.07472229  138.49400330    1.69000006    2.69000006
   18.07805634  135.17199707    1.69000006    2.69000006
   18.08416748  135.17199707    1.69000006    2.69000006
   18.08833313  134.34199524    1.69000006    2.69000006
   18.09138870  137.33700562    1.69000006    2.69000006
   18.09472275  135.87800598    1.69000006    2.69000006
   18.09805679  138.07600403    1.69000006    2.69000006
   18.10111237  135.18200684    1.69000006    2.69000006
   18.10444450  139.42399597    1.69000006    2.69000006
   18.10750008  132.85699463    1.69000006    2.69000006
   18.10805511  135.47900391    1.69000006    2.69000006
   18.11138916  137.78100586    1.69000006    2.69000006
   18.11444473  136.56599426    1.69000006    2.69000006
   18.11777878  133.51899719    1.69000006    2.69000006
   18.12111092  131.38800049    1.69000006    2.69000006
   18.12694550  131.38800049    1.69000006    2.69000006
   18.13111115  135.84700012    1.69000006    2.69000006
   18.13444519  133.16799927    1.69000006    2.69000006
   18.13750076  135.36000061    1.69000006    2.69000006
   18.14083290  131.94599915    1.69000006    2.69000006
   18.14111137  133.99400330    1.69000006    2.69000006
   18.14444351  133.79800415    1.69000006    2.69000006
   18.14777756  131.13600159    1.69000006    2.69000006
   18.15083313  133.40100098    1.69000006    2.69000006
   18.15416718  124.86299896    1.69000006    2.69000006
   18.15722275  133.20399475    1.69000006    2.69000006
   18.16055489  130.50599670    1.69000006    2.69000006
   18.16388893  130.02600098    1.69000006    2.69000006
   18.16972160  130.02600098    1.69000006    2.69000006
   18.17388916  133.15100098    1.69000006    2.69000006
   18.17444420  129.63000488    1.69000006    2.69000006
   18.17777634  134.00199890    1.69000006    2.69000006
   18.18083191  132.52499390    1.69000006    2.69000006
   18.18416595  133.00799561    1.69000006    2.69000006
   18.18722153  134.30299377    1.69000006    2.69000006
   18.19055557  134.80999756    1.69000006    2.69000006
   18.19388771  132.58999634    1.69000006    2.69000006
   18.19694328  131.85800171    1.69000006    2.69000006
   18.20027924  130.83900452    1.69000006    2.69000006
   18.20361137  131.05599976    1.69000006    2.69000006
   18.20666695  132.49299622    1.69000006    2.69000006
   18.20777893  131.05200195    1.69000006    2.69000006
   18.21277809  131.05200195    1.69000006    2.69000006
   18.21694565  133.19099426    1.69000006    2.69000006
   18.22000122  130.62199402    1.69000006    2.69000006
   18.22333336  134.85299683    1.69000006    2.69000006
   18.22638893  130.33399963    1.69000006    2.69000006
   18.22972298  151.84100342    1.69000006    2.69000006
   18.23305511  150.72500610    1.69000006    2.69000006
   18.23611069  139.01899719    1.69000006    2.69000006
   18.23944473  176.53599548    1.69000006    2.69000006
   18.24111176  244.47300720    1.69000006    2.69000006
   18.24305534  316.28399658    1.69000006    2.69000006
   18.24500084  179.16000366    1.69000006    2.69000006
   18.24500084  134.85299683    1.69000006    2.69000006
   18.24500084  130.33399963    1.69000006    2.69000006
   18.24500084  151.84100342    1.69000006    2.69000006
   18.24500084  150.72500610    1.69000006    2.69000006
   18.24527740  139.01899719    1.69000006    2.69000006
   18.24527740  176.53599548    1.69000006    2.69000006
   18.24527740  316.28399658    1.69000006    2.69000006
   18.24527740  133.19099426    1.69000006    2.69000006
   18.24527740  130.62199402    1.69000006    2.69000006
   18.24722290  158.41400146    1.69000006    2.69000006
   18.25055504  145.74099731    1.69000006    2.69000006
   18.25388908  132.25999451    1.69000006    2.69000006
   18.25694466  131.28199768    1.69000006    2.69000006
   18.26027870  133.53199768    1.69000006    2.69000006
   18.26555634  133.53199768    1.69000006    2.69000006
   18.26972198  129.22000122    1.69000006    2.69000006
   18.27305603  129.60000610    1.69000006    2.69000006
   18.27638817  124.64800262    1.69000006    2.69000006
   18.27861023  130.87399292    1.69000006    2.69000006
   18.27972221  129.05900574    1.69000006    2.69000006
   18.28305435  117.51599884    1.69000006    2.69000006
   18.28610992   -1.00000000    1.69000006    2.69000006
   18.28944397   -1.00000000    1.69000006    2.69000006
   18.29277802  131.83399963    1.69000006    2.69000006
   18.29583359  128.16999817    1.69000006    2.69000006
   18.29916573  131.39999390    1.69000006    2.69000006
   18.30222130  129.89599609    1.69000006    2.69000006
   18.30861092  129.89599609    1.69000006    2.69000006
   18.31277657  129.23399353    1.69000006    2.69000006
   18.31583214  130.55499268    1.69000006    2.69000006
   18.31916809  128.92399597    1.69000006    2.69000006
   18.32222366  127.02999878    1.69000006    2.69000006
   18.32555580  129.99699402    1.69000006    2.69000006
   18.32888985  128.59100342    1.69000006    2.69000006
   18.33194542  129.01600647    1.69000006    2.69000006
   18.33527756  125.93000031    1.69000006    2.69000006
   18.33861160  125.44999695    1.69000006    2.69000006
   18.34166718  128.60400391    1.69000006    2.69000006
   18.34500122  130.00599670    1.69000006    2.69000006
   18.34555626  128.29800415    1.69000006    2.69000006
   18.35138893  128.29800415    1.69000006    2.69000006
   18.35555649  127.06099701    1.69000006    2.69000006
   18.35861206  128.98599243    1.69000006    2.69000006
   18.36194420  127.91000366    1.69000006    2.69000006
   18.36527824  124.72699738    1.69000006    2.69000006
   18.36833382  126.72100067    1.69000006    2.69000006
   18.37166595  131.23699951    1.69000006    2.69000006
   18.37472153  126.84100342    1.69000006    2.69000006
   18.37805557  129.72700500    1.69000006    2.69000006
   18.37888908  127.69699860    1.69000006    2.69000006
   18.38166618  125.87200165    1.69000006    2.69000006
   18.38500023  124.22799683    1.69000006    2.69000006
   18.38833237  126.22499847    1.69000006    2.69000006
   18.39416695  126.22499847    1.69000006    2.69000006
   18.39833260  125.20300293    1.69000006    2.69000006
   18.40166664  128.22200012    0.94000000    2.69000006
   18.40472221  124.06900024    0.98000002    2.69000006
   18.40805435  124.26999664    1.41999996    2.69000006
   18.41138840  124.51200104    1.55999994    2.69000006
   18.41222191  124.31900024    1.58000004    2.69000006
   18.41472244  127.05200195    1.39999998    2.71000004
   18.41805458  127.88099670    1.13000000    2.69000006
   18.42138863  126.32299805    1.09000003    2.69000006
   18.42444420  126.63700104    1.05999994    2.69000006
   18.42777634  123.83699799    1.14999998    2.71000004
   18.43083191  124.16500092    1.09000003    2.71000004
   18.43694305  124.16500092    0.98000002    2.69000006
   18.44111061  122.68299866    0.92000002    2.71000004
   18.44444275  128.92799377    0.81999999    2.69000006
   18.44555473  128.26199341    0.79000002    2.71000004
   18.44805527  130.60200500    0.79000002    2.71000004
   18.45138931  128.32000732    0.83999997    2.71000004
   18.45472336  125.02999878    0.88000000    2.71000004
   18.45777893  125.18099976    0.89999998    2.71000004
   18.46111107  134.02600098    0.98000002    2.71000004
   18.46416664  127.86900330    0.95999998    2.71000004
   18.46750069  125.84100342    1.09000003    2.71000004
   18.47083473  133.08999634    1.14999998    2.71000004
   18.47389030  131.75399780    1.09000003    2.71000004
   18.48000145  131.75399780    1.05999994    2.69000006
   18.48416710  125.68399811    1.21000004    2.71000004
   18.48722267  126.08000183    0.92000002    2.69000006
   18.49055672  125.80400085    0.88000000    2.71000004
   18.49388885  128.11799622    0.89999998    2.71000004
   18.49694443  124.82399750    0.89999998    2.71000004
   18.50027847  120.98300171    0.86000001    2.71000004
   18.50333405  118.59600067    0.79000002    2.71000004
   18.50666618  123.91400146    0.80000001    2.71000004
   18.51000023  121.48400116    0.70999998    2.71000004
   18.51222229  126.78900146    0.76999998    2.71000004
   18.51333427  127.24299622    0.80000001    2.69000006
   18.51666641  129.65499878    0.94000000    2.71000004
   18.52277756  129.65499878    0.92000002    2.71000004
   18.52694511  131.16700745    0.83999997    2.71000004
   18.53000069  125.63099670    0.80000001    2.71000004
   18.53333282  129.54400635    0.75000000    2.71000004
   18.53666687  130.81700134    0.81999999    2.71000004
   18.53972244  132.55200195    0.80000001    2.71000004
   18.54305458  128.45399475    0.73000002    2.69000006
   18.54555511  127.80400085    0.79000002    2.69000006
   18.54666710  130.20700073    0.81999999    2.71000004
   18.54999924  129.95899963    0.83999997    2.71000004
   18.55333328  130.41999817    0.81999999    2.69000006
   18.55638885  126.71399689    0.81999999    2.69000006
   18.55972099  125.66500092    0.81999999    2.69000006
   18.56555557  125.66500092    0.95999998    2.71000004
   18.56972313  130.94500732    1.05999994    2.71000004
   18.57305717  127.03399658    1.28999996    2.71000004
   18.57611275  123.35800171    1.60000002    2.69000006
   18.57888985  131.44400024    1.50000000    2.69000006
   18.57972336  142.06199646    1.38000000    2.64000010
   18.58305550  125.65899658    1.78999996    2.69000006
   18.58638954  131.08999634    1.33000004    2.69000006
   18.58944511  129.13099670    2.51999998    2.69000006
   18.59277916  147.05099487    4.90999985    2.15000010
   18.59583473  129.42100525    4.90999985    2.50000000
   18.59916687  105.88099670    4.90999985    1.38000000
   18.60250092   -1.00000000    4.90999985    1.25000000
   18.60861206   -1.00000000    4.90999985    2.32999992
   18.61250114  100.30999756    4.90999985    0.61000001
   18.61583328  276.92800903    4.90999985    1.73000002
   18.61916733  123.29000092    4.90999985    2.21000004
   18.62222290  240.36799622    4.90999985    1.76999998
   18.62555504   86.58429718    4.90999985    1.71000004
   18.62861061  178.75500488    4.90999985    2.46000004
   18.63194466  152.38099670    4.90999985    1.25000000
   18.63527679  205.76899719    4.90999985    2.05999994
   18.63833237  171.92700195    4.90999985    1.73000002
   18.64166641  152.59199524    4.90999985    2.11999989
   18.64500046  135.25999451    4.90999985    2.69000006
   18.64555550  138.88800049    4.90999985    2.71000004
   18.65138817  138.88800049    2.64000010    2.67000008
   18.65555573  127.23100281    1.23000002    2.67000008
   18.65861130  127.32399750    1.13000000    2.67000008
   18.66194344  127.77700043    0.94000000    2.67000008
   18.66499901  125.15399933    0.98000002    2.67000008
   18.66833305  130.35800171    0.89999998    2.69000006
   18.67166519  126.53900146    3.51999998    2.67000008
   18.67472076  120.29399872    4.90999985    2.67000008
   18.67805481  194.43200684    4.90999985    2.50000000
   18.67888832  202.30000305    4.90999985    2.23000002
   18.68138885  249.48100281    4.90999985    1.76999998
   18.68472099  134.21600342    4.90999985    2.17000008
   18.68805504  251.16299438    4.90999985    1.09000003
   18.69416618  251.16299438    4.90999985    1.21000004
   18.69833183   -1.00000000    4.90999985    1.05999994
   18.70138931   -1.00000000    4.90999985    1.78999996
   18.70472336  148.90199280    4.90999985    2.36999989
   18.70805550  142.10400391    4.90999985    2.59999990
   18.71111107  138.70300293    4.90999985    2.55999994
   18.71222305  142.00300598    4.90999985    2.55999994
   18.71472359  120.60600281    4.90999985    2.44000006
   18.71805573   -1.00000000    4.90999985    1.58000004
   18.72138977   -1.00000000    4.90999985    1.09000003
   18.72444534   -1.00000000    4.90999985    0.89999998
   18.72777748  153.75000000    4.90999985    0.98000002
   18.73111153  160.70700073    4.90999985    1.26999998
   18.73694420  160.70700073    4.90999985    2.13000011
   18.74111176  180.08700562    4.90999985    1.86000001
   18.74444389  151.87399292    4.90999985    0.89999998
   18.74555588  199.33700562    4.90999985    0.75000000
   18.74777794  157.04499817    4.90999985    1.13000000
   18.75111198  147.69500732    4.90999985    1.30999994
   18.75444412  123.96800232    4.90999985    0.95999998
   18.75749969  127.08000183    4.90999985    0.75000000
   18.76083374  186.50599670    4.90999985    0.56999999
   18.76416588  125.72100067    4.90999985    0.41999999
   18.76722145  121.86100006    4.90999985    0.25000000
   18.77055550  129.24499512    4.90999985    0.13000000
   18.77361107  128.14999390    4.90999985    0.07000000
   18.77972221  128.14999390    4.90999985    0.01000000
   18.78388786  124.69999695    4.90999985    0.03000000
   18.78722191  129.11900330    4.90999985    0.01000000
   18.79055595  120.51399994    4.90999985    0.01000000
   18.79361153  124.00800323    4.90999985    0.01000000
   18.79694366  159.36799622    4.90999985    0.01000000
   18.79999924  145.14999390    4.90999985    0.01000000
   18.80333328  120.62000275    4.90999985    0.01000000
   18.80666542  136.32800293    4.90999985    0.01000000
   18.80972099  149.42500305    4.90999985    0.01000000
   18.81222153  146.59500122    4.90999985    0.01000000
   18.81333351  125.17600250    4.90999985    0.01000000
   18.81666756  121.52899933    4.90999985    0.01000000
   18.82277870  121.52899933    4.90999985    0.01000000
   18.82694626   91.82119751    4.90999985    0.01000000
   18.83000183  146.92700195    4.90999985    0.01000000
   18.83333397  123.72100067    4.90999985    0.01000000
   18.83638954  120.17299652    4.90999985    0.01000000
   18.83972359  117.62300110    4.90999985    0.01000000
   18.84305573  121.09300232    4.90999985    0.01000000
   18.84555626  133.54499817    4.90999985    0.01000000
   18.84638977  162.40800476    4.90999985    0.01000000
   18.84972191  125.02200317    4.90999985    0.01000000
   18.85305595  124.31800079    4.90999985    0.01000000
   18.85611153  134.76600647    4.90999985    0.01000000
   18.85944557  118.69200134    4.90999985    0.01000000
   18.86555672  118.69200134    4.90999985    0.01000000
   18.86972237  121.87000275    4.90999985    0.01000000
   18.87277794  120.19000244    4.90999985    0.01000000
   18.87611198  118.28199768    4.90999985    0.01000000
   18.87888908  115.05500031    4.90999985    0.01000000
   18.87972260  119.84400177    4.90999985    0.01000000
   18.88305473  218.78300476    4.90999985    0.01000000
   18.88638878  134.76600647    4.90999985    0.01000000
   18.88944435  118.17400360    4.90999985    0.01000000
   18.89277840  121.82599640    4.90999985    0.01000000
   18.89611053  123.58899689    4.90999985    0.01000000
   18.89916611  116.02400208    4.90999985    0.01000000
   18.90250015  182.15299988    4.90999985    0.01000000
   18.90833282  182.15299988    4.90999985    0.01000000
   18.91250038   -1.00000000    4.90999985    0.01000000
   18.91583252  269.51199341    4.90999985    0.01000000
   18.91888809  124.03500366    4.90999985    0.01000000
   18.92222214  123.29199982    4.90999985    0.01000000
   18.92555428  137.97599792    4.90999985    0.01000000
   18.92860985  120.18499756    4.90999985    0.01000000
   18.93194389  136.05099487    4.90999985    0.01000000
   18.93499947  130.83299255    4.90999985    0.01000000
   18.93833160  122.00599670    4.90999985    0.01000000
   18.95777893  128.91099548    4.90999985    0.01000000
   18.95833397  130.88699341    4.90999985    0.01000000
   18.96250153  130.88699341    4.90999985    0.01000000
   18.96638870  167.09300232    4.90999985    0.01000000
   18.96972275   -1.00000000    4.90999985    0.01000000
   18.97305679  142.85800171    4.90999985    0.01000000
   18.97611237  123.33399963    4.90999985    0.01000000
   18.97944450   -1.00000000    4.90999985    0.01000000
   18.98277855  167.59100342    4.90999985    0.01000000
   18.98583412   -1.00000000    4.90999985    0.01000000
   18.98916626   -1.00000000    4.90999985    0.01000000
   18.99250031  129.17100525    4.90999985    0.01000000
   18.99583435  161.25100708    4.90999985    0.01000000
   18.99916649   -1.00000000    4.90999985    0.01000000
   19.00527763   -1.00000000    4.90999985    0.01000000
   19.00944519   -1.00000000    4.90999985    0.01000000
   19.01250076   -1.00000000    4.90999985    0.01000000
   19.01583290   -1.00000000    4.90999985    0.01000000
   19.01888847   -1.00000000    4.90999985    0.01000000
   19.02222252   -1.00000000    4.90999985    0.01000000
   19.02555466   -1.00000000    4.90999985    0.01000000
   19.02888870   -1.00000000    4.90999985    0.01000000
   19.03222275   -1.00000000    4.90999985    0.01000000
   19.03527641   -1.00000000    4.90999985    0.01000000
   19.03861046   -1.00000000    4.90999985    0.01000000
   19.04166603   -1.00000000    4.90999985    0.01000000
   19.05222130   -1.00000000    4.90999985    0.01000000
   19.05527687   -1.00000000    4.90999985    0.01000000
   19.05888748   -1.00000000    4.90999985    0.01000000
   19.06222153   -1.00000000    4.90999985    0.01000000
   19.06555557  291.87799072    4.90999985    0.01000000
   19.06861115  138.11000061    4.90999985    0.01000000
   19.07194519  120.16200256    4.90999985    0.01000000
   19.07500076  142.85800171    4.90999985    0.01000000
   19.07833481  119.72499847    4.90999985    0.01000000
   19.08166695  121.34700012    4.90999985    0.01000000
   19.08472252  120.07199860    4.90999985    0.01000000
   19.09083366  120.07199860    4.90999985    0.01000000
   19.09500122  121.16200256    4.90999985    0.01000000
   19.14555550   95.63749695    4.90999985    0.01000000
   19.14888954  237.59100342    4.90999985    0.01000000
   19.15222168  187.16900635    4.90999985    0.01000000
   19.15527725   -1.00000000    4.90999985    0.01000000
   19.15861130   -1.00000000    4.90999985    0.01000000
   19.16166687   -1.00000000    4.90999985    0.01000000
   19.17000008   -1.00000000    4.90999985    0.01000000
   19.17305565   -1.00000000    4.90999985    0.01000000
   19.17638779   -1.00000000    4.90999985    0.01000000
   19.70472336  137.93400574    4.90999985    0.01000000
   19.70777893  127.04000092    4.90999985    0.01000000
   19.70833397  132.18499756    4.90999985    0.01000000
   19.71250153  129.08900452    4.90999985    0.01000000
   19.71583366  135.26899719    4.90999985    0.01000000
   19.71888924  134.58999634    4.90999985    0.01000000
   19.72222328  128.25199890    4.90999985    0.01000000
   19.72527885  134.70799255    4.90999985    0.01000000
   19.72972298  134.70799255    4.90999985    0.01000000
   19.73388863  131.92700195    4.90999985    0.01000000
   19.73722267  131.66000366    4.90999985    0.01000000
   19.73861122  135.25300598    4.90999985    0.01000000
   19.74083328  128.03599548    4.90999985    0.01000000
   19.74388885  131.90699768    4.90999985    0.01000000
   19.74722290  134.16000366    4.90999985    0.01000000
   19.75055504  133.30999756    4.90999985    0.01000000
   19.75361061  132.96699524    4.90999985    0.01000000
   19.75694466  135.88699341    4.90999985    0.01000000
   19.76000023  136.07099915    4.90999985    0.01000000
   19.76333427  137.72700500    4.90999985    0.01000000
   19.76666641  134.73399353    4.90999985    0.01000000
   19.77249908  134.73399353    4.90999985    0.01000000
   19.77666664  143.22500610    4.90999985    0.01000000
   19.78000069  150.52099609    4.90999985    0.01000000
   19.78305435  214.55700684    4.90999985    0.01000000
   19.78638840  168.00700378    4.90999985    0.01000000
   19.78972244  108.11900330    4.90999985    0.01000000
   19.79277802  240.46600342    4.90999985    0.01000000
   19.79611015  151.56900024    4.90999985    0.01000000
   19.79916573  141.21000671    4.90999985    0.01000000
   19.80249977  138.26199341    4.90999985    0.01000000
   19.80527687  135.39900208    4.90999985    2.61999989
   19.80611038  134.92300415    4.90999985    2.61999989
   19.80916595  133.74800110    4.30999994    2.53999996
   19.81555557  133.74800110    1.85000002    2.59999990
   19.81944466  134.85699463    1.85000002    2.59999990
   19.82277870  136.50399780    1.85000002    2.61999989
   19.82611275  138.87399292    1.53999996    2.57999992
   19.82916832  135.51600647    1.73000002    2.59999990
   19.83250046  130.93800354    1.86000001    2.59999990
   19.83555603  137.81300354    1.96000004    2.59999990
   19.83861160  140.19500732    2.15000010    2.61999989
   19.83944511  135.54400635    3.26999998    2.61999989
   19.84250069  137.40499878    4.90999985    2.64000010
   19.84583473  149.33399963    4.90999985    2.55999994
   19.84916687  120.14499664    4.90999985    2.64000010
   19.85222244  163.41400146    4.90999985    2.50000000
   19.85833359  163.41400146    4.90999985    1.50000000
   19.86250114  163.61500549    4.90999985    2.30999994
   19.86555672  145.92399597    4.90999985    2.28999996
   19.86888885  135.35400391    4.90999985    2.64000010
   19.87194443  136.37300110    4.90999985    2.61999989
   19.87249947  138.30200195    4.90999985    2.61999989
   19.87555504  142.85800171    4.90999985    2.61999989
   19.87888908  131.13900757    4.90999985    2.61999989
   19.88222313  137.03999329    4.90999985    2.61999989
   19.88527679  135.04800415    4.90999985    2.61999989
   19.88861084  139.75500488    4.90999985    2.61999989
   19.89166641  146.91700745    4.90999985    2.64000010
   19.89500046  151.95399475    4.90999985    2.59999990
   19.90111160  151.95399475    4.90999985    2.42000008
   19.90527725  122.34300232    4.90999985    1.66999996
   19.90583229  273.23599243    4.90999985    1.66999996
   19.90888786  157.65499878    4.90999985    2.40000010
   19.91222191  159.01499939    4.90999985    2.46000004
   19.91555595  141.09100342    4.90999985    2.61999989
   19.91860962  142.82600403    4.90999985    2.64000010
   19.92194366  139.75599670    4.90999985    2.61999989
   19.92499924  136.46800232    4.90999985    2.64000010
   19.92833328  132.55099487    4.90999985    2.64000010
   19.93166542  133.31300354    4.90999985    2.64000010
   19.93472099  134.52600098    4.90999985    2.64000010
   19.93805504  140.00000000    4.90999985    2.64000010
   19.93916512  132.12600708    4.90999985    2.64000010
   19.94388771  132.12600708    4.90999985    2.64000010
   19.94805527  143.87100220    4.90999985    2.64000010
   19.95138931  137.36500549    4.90999985    2.64000010
   19.95444489  141.05200195    4.90999985    2.64000010
   19.95777893  139.03599548    4.90999985    2.64000010
   19.96111107  137.81900024    4.90999985    2.64000010
   19.96416664  146.55499268    4.90999985    2.64000010
   19.96750069  137.55999756    4.90999985    2.64000010
   19.97083473  138.32800293    4.90999985    2.64000010
   19.97249985  111.72499847    4.90999985    2.64000010
   19.97416687  164.04499817    4.90999985    2.64000010
   19.97750092  178.41799927    4.90999985    1.98000002
   19.98083305  165.26499939    4.90999985    2.30999994
   19.98694420  165.26499939    4.90999985    2.66000009
   19.99083328  144.09300232    4.90999985    2.34999990
   19.99416733  130.64999390    4.90999985    2.69000006
   19.99749947  196.89599609    4.90999985    2.44000006
   20.00055504  156.84100342    4.90999985    2.05999994
   20.00388908  139.00000000    4.90999985    2.40000010
   20.00583267  134.47500610    4.90999985    2.61999989
   20.00722313  138.66499329    4.90999985    2.61999989
   20.01055527  144.11399841    4.90999985    2.50000000
   20.01388931  140.74699402    4.90999985    2.46000004
   20.01694489  130.88600159    4.90999985    2.59999990
   20.02027702  131.29600525    4.90999985    2.64000010
   20.02333260  138.24400330    4.90999985    2.64000010
   20.02972221  138.24400330    4.90999985    2.55999994
   20.03388786  147.02099609    4.90999985    2.59999990
   20.03694344  142.21499634    4.90999985    2.59999990
   20.03916550  137.82200623    4.90999985    2.59999990
   20.04055595  136.47799683    4.90999985    2.59999990
   20.04388809  137.17300415    4.90999985    2.59999990
   20.04722214  137.32000732    4.90999985    2.61999989
   20.05027771  140.68099976    4.90999985    2.64000010
   20.05360985  136.76499939    4.90999985    2.64000010
   20.05666542  131.28799438    4.90999985    2.66000009
   20.05999947  142.04299927    4.90999985    2.51999998
   20.06333351  206.22599792    4.90999985    1.94000006
   20.06638718  323.73599243    4.90999985    1.76999998
   20.06833458  171.12300110    4.90999985    2.19000006
   20.06861115  142.04299927    4.90999985    2.51999998
   20.06861115  206.22599792    4.90999985    1.94000006
   20.06861115  323.73599243    4.90999985    1.76999998
   20.06861115  136.47799683    4.90999985    2.59999990
   20.06861115  137.17300415    4.90999985    2.59999990
   20.06888962  137.32000732    4.90999985    2.61999989
   20.06888962  140.68099976    4.90999985    2.64000010
   20.06888962  136.76499939    4.90999985    2.64000010
   20.06888962  131.28799438    4.90999985    2.66000009
   20.07305717  131.28799438    4.90999985    1.33000004
   20.07722282  269.95300293    4.90999985    1.86000001
   20.08055687  191.63999939    4.90999985    2.28999996
   20.08388901  150.49699402    4.90999985    2.44000006
   20.08694458  144.80599976    4.90999985    2.61999989
   20.09027863  142.48899841    4.90999985    2.64000010
   20.09333420  136.04299927    4.90999985    2.66000009
   20.09666824  135.80400085    4.90999985    2.64000010
   20.10000038  145.88400269    4.90999985    2.61999989
   20.10222244  137.04299927    4.90999985    2.61999989
   20.10361099  137.12500000    4.90999985    2.61999989
   20.10666656  143.16700745    4.90999985    2.59999990
   20.11000061  124.45200348    4.90999985    2.59999990
   20.11583328  124.45200348    4.90999985    2.59999990
   20.12000084  164.91600037    4.90999985    2.59999990
   20.12333298  161.07000732    4.90999985    2.59999990
   20.12638855  182.73100281    4.90999985    2.59999990
   20.12972260  187.87199402    4.90999985    2.59999990
   20.13305473  204.31399536    4.90999985    2.59999990
   20.13555527  227.27400208    4.90999985    2.59999990
   20.13666725  197.43800354    4.90999985    2.61999989
   20.13972282  157.26100159    4.90999985    2.59999990
   20.14305496   -1.00000000    4.90999985    2.59999990
   20.14638901   -1.00000000    4.90999985    2.59999990
   20.14944458   -1.00000000    4.90999985    2.59999990
   20.15277672   -1.00000000    3.91000009    2.59999990
   20.16277695   -1.00000000    4.90999985    2.57999992
   20.16611099   -1.00000000    4.90999985    2.57999992
   20.16972160   -1.00000000    4.90999985    2.57999992
   20.17277718   -1.00000000    4.90999985    2.59999990
   20.17611122   -1.00000000    4.90999985    2.57999992
   20.17916679   -1.00000000    4.90999985    2.57999992
   20.18249893   -1.00000000    4.90999985    2.57999992
   20.18583298   -1.00000000    4.90999985    2.59999990
   20.18888855   -1.00000000    4.90999985    2.57999992
   20.19222069   -1.00000000    4.90999985    2.59999990
   20.19555473   -1.00000000    4.90999985    2.59999990
   20.20555687   -1.00000000    4.90999985    2.28999996
   20.20888901   -1.00000000    4.90999985    2.57999992
   20.21222305   -1.00000000    4.90999985    2.59999990
   20.21527863   -1.00000000    4.90999985    2.57999992
   20.21861076   -1.00000000    4.90999985    2.57999992
   20.22194481   -1.00000000    4.82999992    2.57999992
   20.22500038   -1.00000000    4.40999985    2.55999994
   20.22833443   -1.00000000    4.90999985    2.55999994
   20.23139000   -1.00000000    4.90999985    2.57999992
   20.23472214   -1.00000000    4.90999985    2.48000002
   20.23833275   -1.00000000    4.90999985    2.57999992
   20.24861145   -1.00000000    4.90999985    2.55999994
   20.25166702   -1.00000000    4.61999989    2.57999992
   20.25499916   -1.00000000    4.55999994    2.55999994
   20.25833321   -1.00000000    4.90999985    2.55999994
   20.26138878   -1.00000000    3.70000005    2.55999994
   20.26472282   -1.00000000    3.55999994    2.55999994
   20.26777840   -1.00000000    3.50000000    2.55999994
   20.27138901   -1.00000000    3.36999989    2.55999994
   20.27472115   -1.00000000    3.39000010    2.55999994
   20.27777672   -1.00000000    3.48000002    2.55999994
   20.28111076   -1.00000000    3.76999998    2.55999994
   20.29138756   -1.00000000    3.75000000    2.55999994
   20.29472160   -1.00000000    3.64000010    2.55999994
   20.29777718   -1.00000000    3.53999996    2.55999994
   20.30111122   -1.00000000    3.57999992    2.55999994
   20.30472183   -1.00000000    3.68000007    2.55999994
   20.30777740   -1.00000000    3.72000003    2.55999994
   20.31110954   -1.00000000    3.84999990    2.53999996
   20.31444359   -1.00000000    4.01999998    2.55999994
   20.31777954   -1.00000000    4.34999990    2.55999994
   20.32111168   -1.00000000    4.32999992    2.55999994
   20.32444572   -1.00000000    4.42999983    2.55999994
   20.33416748   -1.00000000    4.09999990    2.53999996
   20.33777809   -1.00000000    4.28999996    2.53999996
   20.34083366   -1.00000000    3.86999989    2.53999996
   20.34416771   -1.00000000    3.84999990    2.53999996
   20.34749985   -1.00000000    3.80999994    2.53999996
   20.35055542   -1.00000000    3.82999992    2.53999996
   20.35388947   -1.00000000    3.80999994    2.53999996
   20.35722351   -1.00000000    3.86999989    2.53999996
   20.36027908   -1.00000000    3.89000010    2.53999996
   20.36361122   -1.00000000    3.86999989    2.53999996
   20.36666679   -1.00000000    3.84999990    2.51999998
   20.37694550   -1.00000000    3.84999990    2.53999996
   20.38027763   -1.00000000    3.80999994    2.53999996
   20.38361168   -1.00000000    3.78999996    2.53999996
   20.38666725   -1.00000000    3.76999998    2.53999996
   20.38999939   -1.00000000    3.73000002    2.53999996
   20.39305496   -1.00000000    3.68000007    2.53999996
   20.39638901   -1.00000000    3.66000009    2.53999996
   20.39972115   -1.00000000    3.68000007    2.53999996
   20.40277672   -1.00000000    3.66000009    2.53999996
   20.40638924   -1.00000000    3.61999989    2.53999996
   20.40972137   -1.00000000    3.64000010    2.53999996
   20.42000008   -1.00000000    3.99000001    2.51999998
   20.42305565   -1.00000000    4.21999979    2.53999996
   20.42638779   -1.00000000    4.40999985    2.51999998
   20.42972183   -1.00000000    4.80000019    2.51999998
   20.43277740   -1.00000000    4.90999985    2.51999998
   20.43610954   -1.00000000    4.90999985    2.53999996
   20.43972206   -1.00000000    4.90999985    2.51999998
   20.44277763   -1.00000000    4.90999985    2.51999998
   20.44610977   -1.00000000    4.90999985    2.53999996
   20.44916534   -1.00000000    4.90999985    2.51999998
   20.45250130   -1.00000000    4.90999985    2.34999990
   20.46277809   -1.00000000    4.90999985    2.51999998
   20.46611214   -1.00000000    4.88999987    2.51999998
   20.46916771   -1.00000000    4.26999998    2.51999998
   20.47277832   -1.00000000    4.07999992    2.50000000
   20.47611237   -1.00000000    4.07999992    2.50000000
   20.47944450   -1.00000000    4.23999977    2.51999998
   20.48250008   -1.00000000    4.36999989    2.50000000
   20.48583412   -1.00000000    4.26999998    2.51999998
   20.48888969   -1.00000000    4.26000023    2.51999998
   20.49222183   -1.00000000    4.01999998    2.51999998
   20.49555588   -1.00000000    4.00000000    2.51999998
   20.50555611   -1.00000000    3.97000003    2.50000000
   20.50888824   -1.00000000    3.99000001    2.50000000
   20.51194382   -1.00000000    3.99000001    2.50000000
   20.51527786   -1.00000000    3.97000003    2.50000000
   20.51861000   -1.00000000    4.09999990    2.50000000
   20.52166557   -1.00000000    4.26000023    2.50000000
   20.52499962   -1.00000000    4.36999989    2.48000002
   20.52833366   -1.00000000    4.34999990    2.50000000
   20.53138924   -1.00000000    4.34999990    2.48000002
   20.53472137   -1.00000000    4.38999987    2.48000002
   20.53805542   -1.00000000    4.34999990    2.48000002
   20.54861069   -1.00000000    4.00000000    2.46000004
   20.55166626   -1.00000000    3.97000003    2.46000004
   20.55499840   -1.00000000    4.00000000    2.46000004
   20.55805397   -1.00000000    3.93000007    2.46000004
   20.56138802   -1.00000000    4.01999998    2.46000004
   20.56472206   -1.00000000    4.30999994    2.46000004
   20.56777954   -1.00000000    4.44999981    2.46000004
   20.57139015   -1.00000000    4.38999987    2.46000004
   20.57472229   -1.00000000    4.40999985    2.46000004
   20.57805634   -1.00000000    4.57999992    2.46000004
   20.58111191   -1.00000000    4.90999985    2.46000004
   20.59138870   -1.00000000    4.90999985    2.46000004
   20.59444427   -1.00000000    4.90999985    2.46000004
   20.59777832   -1.00000000    4.90999985    2.44000006
   20.60111237   -1.00000000    4.90999985    2.44000006
   20.60444450   -1.00000000    4.90999985    2.44000006
   20.60777855   -1.00000000    4.53000021    2.44000006
   20.61111069   -1.00000000    4.11999989    2.42000008
   20.61416626   -1.00000000    4.03999996    2.42000008
   20.61750031   -1.00000000    3.89000010    2.40000010
   20.62055588   -1.00000000    3.86999989    2.40000010
   20.62388992   -1.00000000    3.89000010    2.34999990
   20.63416672   -1.00000000    3.64000010    2.05999994
   20.63750076   -1.00000000    3.61999989    1.89999998
   20.64111137   -1.00000000    3.80999994    1.71000004
   20.64416695   -1.00000000    4.15999985    1.50000000
   20.64749908   -1.00000000    4.01999998    1.48000002
   20.65083313   -1.00000000    4.51000023    1.28999996
   20.65388870   -1.00000000    4.90999985    1.11000001
   20.65722275   -1.00000000    4.90999985    0.89999998
   20.66055489   -1.00000000    4.90999985    0.73000002
   20.66361046   -1.00000000    4.90999985    0.73000002
   20.66694450   -1.00000000    4.90999985    0.61000001
   20.67694473   -1.00000000    4.90999985    0.19000000
   20.68027687   -1.00000000    4.90999985    0.13000000
   20.68333244   -1.00000000    4.90999985    0.03000000
   20.68666649   -1.00000000    4.90999985    0.01000000
   20.68999863   -1.00000000    4.90999985    0.01000000
   20.69305420   -1.00000000    4.90999985    0.01000000
   20.69638824   -1.00000000    4.90999985    0.01000000
   20.69944382   -1.00000000    4.90999985    0.01000000
   20.70277786   -1.00000000    4.90999985    0.01000000
   20.70639038   -1.00000000    4.90999985    0.01000000
